NPP VIIRS Band Averaged Relative Spectral Response from Northrop Grumman October 2011 release to govt team.
    WL(um)      RSR
    3.8830    0.005075
    3.8840    0.005276
    3.8850    0.005478
    3.8860    0.005680
    3.8870    0.005881
    3.8880    0.006090
    3.8890    0.006337
    3.8900    0.006619
    3.8910    0.006902
    3.8920    0.007185
    3.8930    0.007468
    3.8940    0.007751
    3.8950    0.008034
    3.8960    0.008335
    3.8970    0.008698
    3.8980    0.009086
    3.8990    0.009474
    3.9000    0.009862
    3.9010    0.010251
    3.9020    0.010639
    3.9030    0.011033
    3.9040    0.011505
    3.9050    0.012074
    3.9060    0.012647
    3.9070    0.013219
    3.9080    0.013792
    3.9090    0.014365
    3.9100    0.014937
    3.9110    0.015517
    3.9120    0.016182
    3.9130    0.016945
    3.9140    0.017708
    3.9150    0.018472
    3.9160    0.019235
    3.9170    0.019998
    3.9180    0.020763
    3.9190    0.021633
    3.9200    0.022683
    3.9210    0.023763
    3.9220    0.024843
    3.9230    0.025924
    3.9240    0.027004
    3.9250    0.028084
    3.9260    0.029215
    3.9270    0.030615
    3.9280    0.032225
    3.9290    0.033836
    3.9300    0.035446
    3.9310    0.037057
    3.9320    0.038668
    3.9330    0.040278
    3.9340    0.041998
    3.9350    0.044116
    3.9360    0.046411
    3.9370    0.048707
    3.9380    0.051003
    3.9390    0.053298
    3.9400    0.055594
    3.9410    0.057929
    3.9420    0.060751
    3.9430    0.064381
    3.9440    0.068047
    3.9450    0.071714
    3.9460    0.075380
    3.9470    0.079046
    3.9480    0.082712
    3.9490    0.086613
    3.9500    0.091351
    3.9510    0.096629
    3.9520    0.101906
    3.9530    0.107184
    3.9540    0.112462
    3.9550    0.117739
    3.9560    0.123024
    3.9570    0.128922
    3.9580    0.135978
    3.9590    0.143234
    3.9600    0.150490
    3.9610    0.157746
    3.9620    0.165002
    3.9630    0.172257
    3.9640    0.179682
    3.9650    0.188244
    3.9660    0.198314
    3.9670    0.208389
    3.9680    0.218464
    3.9690    0.228538
    3.9700    0.238613
    3.9710    0.248687
    3.9720    0.259841
    3.9730    0.273593
    3.9740    0.288289
    3.9750    0.302985
    3.9760    0.317680
    3.9770    0.332376
    3.9780    0.347072
    3.9790    0.361881
    3.9800    0.377937
    3.9810    0.396250
    3.9820    0.414656
    3.9830    0.433061
    3.9840    0.451466
    3.9850    0.469872
    3.9860    0.488277
    3.9870    0.506770
    3.9880    0.524940
    3.9890    0.542534
    3.9900    0.560128
    3.9910    0.577721
    3.9920    0.595315
    3.9930    0.612909
    3.9940    0.630503
    3.9950    0.648008
    3.9960    0.664713
    3.9970    0.681224
    3.9980    0.697735
    3.9990    0.714246
    4.0000    0.730757
    4.0010    0.747268
    4.0020    0.763385
    4.0030    0.777613
    4.0040    0.791038
    4.0050    0.804462
    4.0060    0.817887
    4.0070    0.831311
    4.0080    0.844735
    4.0090    0.858160
    4.0100    0.870668
    4.0110    0.879853
    4.0120    0.887556
    4.0130    0.895260
    4.0140    0.902962
    4.0150    0.910665
    4.0160    0.918368
    4.0170    0.925969
    4.0180    0.932440
    4.0190    0.938813
    4.0200    0.945187
    4.0210    0.951562
    4.0220    0.957937
    4.0230    0.964312
    4.0240    0.970687
    4.0250    0.976574
    4.0260    0.979997
    4.0270    0.981480
    4.0280    0.982964
    4.0290    0.984447
    4.0300    0.985930
    4.0310    0.987413
    4.0320    0.988899
    4.0330    0.990794
    4.0340    0.992255
    4.0350    0.993602
    4.0360    0.994948
    4.0370    0.996295
    4.0380    0.997642
    4.0390    0.998989
    4.0400    1.000000
    4.0410    0.999531
    4.0420    0.998193
    4.0430    0.996852
    4.0440    0.995511
    4.0450    0.994170
    4.0460    0.992829
    4.0470    0.991488
    4.0480    0.988969
    4.0490    0.985763
    4.0500    0.982851
    4.0510    0.979940
    4.0520    0.977028
    4.0530    0.974117
    4.0540    0.971205
    4.0550    0.968467
    4.0560    0.967501
    4.0570    0.965499
    4.0580    0.963389
    4.0590    0.961279
    4.0600    0.959170
    4.0610    0.957060
    4.0620    0.954950
    4.0630    0.952929
    4.0640    0.952092
    4.0650    0.952800
    4.0660    0.953508
    4.0670    0.954216
    4.0680    0.954924
    4.0690    0.955633
    4.0700    0.956352
    4.0710    0.958346
    4.0720    0.959384
    4.0730    0.960077
    4.0740    0.960771
    4.0750    0.961464
    4.0760    0.962157
    4.0770    0.962850
    4.0780    0.963216
    4.0790    0.962597
    4.0800    0.963200
    4.0810    0.963807
    4.0820    0.964415
    4.0830    0.965022
    4.0840    0.965629
    4.0850    0.966237
    4.0860    0.966844
    4.0870    0.967126
    4.0880    0.967248
    4.0890    0.967369
    4.0900    0.967491
    4.0910    0.967613
    4.0920    0.967735
    4.0930    0.967806
    4.0940    0.967618
    4.0950    0.968361
    4.0960    0.969172
    4.0970    0.969984
    4.0980    0.970795
    4.0990    0.971606
    4.1000    0.972418
    4.1010    0.974056
    4.1020    0.977121
    4.1030    0.980145
    4.1040    0.983168
    4.1050    0.986192
    4.1060    0.989215
    4.1070    0.992238
    4.1080    0.995254
    4.1090    0.997450
    4.1100    0.996885
    4.1110    0.995766
    4.1120    0.994648
    4.1130    0.993529
    4.1140    0.992410
    4.1150    0.991291
    4.1160    0.989383
    4.1170    0.983358
    4.1180    0.974023
    4.1190    0.964681
    4.1200    0.955339
    4.1210    0.945997
    4.1220    0.936655
    4.1230    0.927313
    4.1240    0.915744
    4.1250    0.897945
    4.1260    0.877643
    4.1270    0.857339
    4.1280    0.837037
    4.1290    0.816735
    4.1300    0.796433
    4.1310    0.776098
    4.1320    0.755667
    4.1330    0.736621
    4.1340    0.717665
    4.1350    0.698708
    4.1360    0.679751
    4.1370    0.660794
    4.1380    0.641838
    4.1390    0.622519
    4.1400    0.602008
    4.1410    0.580946
    4.1420    0.559885
    4.1430    0.538824
    4.1440    0.517762
    4.1450    0.496701
    4.1460    0.475659
    4.1470    0.456438
    4.1480    0.438929
    4.1490    0.421639
    4.1500    0.404348
    4.1510    0.387058
    4.1520    0.369767
    4.1530    0.352476
    4.1540    0.335484
    4.1550    0.320410
    4.1560    0.307754
    4.1570    0.295104
    4.1580    0.282454
    4.1590    0.269805
    4.1600    0.257155
    4.1610    0.244505
    4.1620    0.232464
    4.1630    0.222314
    4.1640    0.212974
    4.1650    0.203633
    4.1660    0.194292
    4.1670    0.184951
    4.1680    0.175611
    4.1690    0.166421
    4.1700    0.159003
    4.1710    0.154425
    4.1720    0.149976
    4.1730    0.145526
    4.1740    0.141077
    4.1750    0.136627
    4.1760    0.132178
    4.1770    0.127995
    4.1780    0.124629
    4.1790    0.121651
    4.1800    0.118674
    4.1810    0.115696
    4.1820    0.112718
    4.1830    0.109741
    4.1840    0.106762
    4.1850    0.103564
    4.1860    0.100008
    4.1870    0.096393
    4.1880    0.092778
    4.1890    0.089162
    4.1900    0.085547
    4.1910    0.081932
    4.1920    0.078262
    4.1930    0.074291
    4.1940    0.069981
    4.1950    0.065671
    4.1960    0.061361
    4.1970    0.057051
    4.1980    0.052740
    4.1990    0.048430
    4.2000    0.044339
    4.2010    0.040916
    4.2020    0.037751
    4.2030    0.034586
    4.2040    0.031421
    4.2050    0.028256
    4.2060    0.025091
    4.2070    0.022133
    4.2080    0.021362
    4.2090    0.022732
    4.2100    0.024151
    4.2110    0.025569
    4.2120    0.026988
    4.2130    0.028407
    4.2140    0.029825
    4.2150    0.033381
    4.2160    0.035071
    4.2170    0.034436
    4.2180    0.033409
    4.2190    0.032382
    4.2200    0.031356
    4.2210    0.030329
    4.2220    0.029302
    4.2230    0.028276
    4.2240    0.027249
    4.2250    0.026222
    4.2260    0.025195
    4.2270    0.024169
    4.2280    0.023142
    4.2290    0.022115
    4.2300    0.021089
    4.2310    0.020062
    4.2320    0.019035
    4.2330    0.018008
    4.2340    0.016982
    4.2350    0.015955
    4.2360    0.014928
    4.2370    0.013902
    4.2380    0.012875
    4.2390    0.011848
    4.2400    0.010821
    4.2410    0.009795
    4.2420    0.008768
    4.2430    0.007741
    4.2440    0.006715
    4.2450    0.005688
