NPP VIIRS Band Averaged Relative Spectral Response from Northrop Grumman October 2011 release to govt team.
    WL(um)      RSR
   10.0830    0.005010
   10.0840    0.005056
   10.0850    0.005102
   10.0860    0.005148
   10.0870    0.005195
   10.0880    0.005243
   10.0890    0.005292
   10.0900    0.005341
   10.0910    0.005391
   10.0920    0.005441
   10.0930    0.005491
   10.0940    0.005541
   10.0950    0.005591
   10.0960    0.005641
   10.0970    0.005692
   10.0980    0.005742
   10.0990    0.005792
   10.1000    0.005843
   10.1010    0.005893
   10.1020    0.005944
   10.1030    0.005994
   10.1040    0.006045
   10.1050    0.006096
   10.1060    0.006147
   10.1070    0.006198
   10.1080    0.006249
   10.1090    0.006300
   10.1100    0.006351
   10.1110    0.006402
   10.1120    0.006453
   10.1130    0.006504
   10.1140    0.006555
   10.1150    0.006605
   10.1160    0.006656
   10.1170    0.006707
   10.1180    0.006758
   10.1190    0.006809
   10.1200    0.006860
   10.1210    0.006911
   10.1220    0.006962
   10.1230    0.007013
   10.1240    0.007064
   10.1250    0.007115
   10.1260    0.007165
   10.1270    0.007216
   10.1280    0.007268
   10.1290    0.007325
   10.1300    0.007381
   10.1310    0.007439
   10.1320    0.007497
   10.1330    0.007556
   10.1340    0.007616
   10.1350    0.007676
   10.1360    0.007737
   10.1370    0.007798
   10.1380    0.007858
   10.1390    0.007918
   10.1400    0.007979
   10.1410    0.008040
   10.1420    0.008100
   10.1430    0.008159
   10.1440    0.008219
   10.1450    0.008279
   10.1460    0.008339
   10.1470    0.008399
   10.1480    0.008459
   10.1490    0.008519
   10.1500    0.008579
   10.1510    0.008639
   10.1520    0.008698
   10.1530    0.008759
   10.1540    0.008820
   10.1550    0.008879
   10.1560    0.008934
   10.1570    0.008990
   10.1580    0.009046
   10.1590    0.009102
   10.1600    0.009158
   10.1610    0.009213
   10.1620    0.009273
   10.1630    0.009343
   10.1640    0.009425
   10.1650    0.009510
   10.1660    0.009597
   10.1670    0.009690
   10.1680    0.009785
   10.1690    0.009883
   10.1700    0.009981
   10.1710    0.010078
   10.1720    0.010179
   10.1730    0.010281
   10.1740    0.010383
   10.1750    0.010485
   10.1760    0.010587
   10.1770    0.010689
   10.1780    0.010793
   10.1790    0.010899
   10.1800    0.011005
   10.1810    0.011111
   10.1820    0.011217
   10.1830    0.011327
   10.1840    0.011437
   10.1850    0.011547
   10.1860    0.011658
   10.1870    0.011768
   10.1880    0.011878
   10.1890    0.011988
   10.1900    0.012099
   10.1910    0.012209
   10.1920    0.012319
   10.1930    0.012430
   10.1940    0.012540
   10.1950    0.012650
   10.1960    0.012761
   10.1970    0.012871
   10.1980    0.012981
   10.1990    0.013092
   10.2000    0.013202
   10.2010    0.013312
   10.2020    0.013423
   10.2030    0.013533
   10.2040    0.013643
   10.2050    0.013754
   10.2060    0.013864
   10.2070    0.013974
   10.2080    0.014085
   10.2090    0.014195
   10.2100    0.014305
   10.2110    0.014416
   10.2120    0.014526
   10.2130    0.014636
   10.2140    0.014747
   10.2150    0.014857
   10.2160    0.014967
   10.2170    0.015078
   10.2180    0.015188
   10.2190    0.015298
   10.2200    0.015411
   10.2210    0.015527
   10.2220    0.015643
   10.2230    0.015758
   10.2240    0.015874
   10.2250    0.015990
   10.2260    0.016105
   10.2270    0.016221
   10.2280    0.016337
   10.2290    0.016452
   10.2300    0.016568
   10.2310    0.016684
   10.2320    0.016800
   10.2330    0.016915
   10.2340    0.017031
   10.2350    0.017147
   10.2360    0.017262
   10.2370    0.017378
   10.2380    0.017494
   10.2390    0.017609
   10.2400    0.017725
   10.2410    0.017841
   10.2420    0.017963
   10.2430    0.018107
   10.2440    0.018283
   10.2450    0.018467
   10.2460    0.018658
   10.2470    0.018863
   10.2480    0.019075
   10.2490    0.019308
   10.2500    0.019550
   10.2510    0.019796
   10.2520    0.020050
   10.2530    0.020309
   10.2540    0.020572
   10.2550    0.020835
   10.2560    0.021098
   10.2570    0.021365
   10.2580    0.021637
   10.2590    0.021914
   10.2600    0.022191
   10.2610    0.022467
   10.2620    0.022744
   10.2630    0.023028
   10.2640    0.023313
   10.2650    0.023599
   10.2660    0.023885
   10.2670    0.024171
   10.2680    0.024460
   10.2690    0.024750
   10.2700    0.025042
   10.2710    0.025338
   10.2720    0.025634
   10.2730    0.025931
   10.2740    0.026227
   10.2750    0.026523
   10.2760    0.026819
   10.2770    0.027116
   10.2780    0.027412
   10.2790    0.027708
   10.2800    0.028005
   10.2810    0.028301
   10.2820    0.028597
   10.2830    0.028893
   10.2840    0.029190
   10.2850    0.029486
   10.2860    0.029782
   10.2870    0.030078
   10.2880    0.030375
   10.2890    0.030671
   10.2900    0.030967
   10.2910    0.031263
   10.2920    0.031560
   10.2930    0.031856
   10.2940    0.032152
   10.2950    0.032448
   10.2960    0.032745
   10.2970    0.033044
   10.2980    0.033345
   10.2990    0.033645
   10.3000    0.033951
   10.3010    0.034262
   10.3020    0.034572
   10.3030    0.034883
   10.3040    0.035194
   10.3050    0.035504
   10.3060    0.035815
   10.3070    0.036126
   10.3080    0.036436
   10.3090    0.036747
   10.3100    0.037058
   10.3110    0.037368
   10.3120    0.037679
   10.3130    0.037990
   10.3140    0.038300
   10.3150    0.038611
   10.3160    0.038922
   10.3170    0.039232
   10.3180    0.039543
   10.3190    0.039854
   10.3200    0.040165
   10.3210    0.040475
   10.3220    0.040803
   10.3230    0.041190
   10.3240    0.041655
   10.3250    0.042140
   10.3260    0.042647
   10.3270    0.043189
   10.3280    0.043745
   10.3290    0.044362
   10.3300    0.045003
   10.3310    0.045657
   10.3320    0.046330
   10.3330    0.047017
   10.3340    0.047711
   10.3350    0.048406
   10.3360    0.049101
   10.3370    0.049806
   10.3380    0.050523
   10.3390    0.051249
   10.3400    0.051975
   10.3410    0.052701
   10.3420    0.053427
   10.3430    0.054169
   10.3440    0.054915
   10.3450    0.055662
   10.3460    0.056408
   10.3470    0.057155
   10.3480    0.057912
   10.3490    0.058670
   10.3500    0.059432
   10.3510    0.060202
   10.3520    0.060972
   10.3530    0.061742
   10.3540    0.062511
   10.3550    0.063281
   10.3560    0.064051
   10.3570    0.064821
   10.3580    0.065590
   10.3590    0.066360
   10.3600    0.067130
   10.3610    0.067900
   10.3620    0.068669
   10.3630    0.069439
   10.3640    0.070209
   10.3650    0.070979
   10.3660    0.071748
   10.3670    0.072518
   10.3680    0.073288
   10.3690    0.074058
   10.3700    0.074827
   10.3710    0.075597
   10.3720    0.076367
   10.3730    0.077137
   10.3740    0.077906
   10.3750    0.078676
   10.3760    0.079446
   10.3770    0.080224
   10.3780    0.081007
   10.3790    0.081790
   10.3800    0.082585
   10.3810    0.083388
   10.3820    0.084192
   10.3830    0.084995
   10.3840    0.085799
   10.3850    0.086602
   10.3860    0.087405
   10.3870    0.088209
   10.3880    0.089012
   10.3890    0.089816
   10.3900    0.090619
   10.3910    0.091423
   10.3920    0.092226
   10.3930    0.093030
   10.3940    0.093833
   10.3950    0.094636
   10.3960    0.095440
   10.3970    0.096243
   10.3980    0.097047
   10.3990    0.097850
   10.4000    0.098654
   10.4010    0.099457
   10.4020    0.100301
   10.4030    0.101277
   10.4040    0.102435
   10.4050    0.103641
   10.4060    0.104901
   10.4070    0.106243
   10.4080    0.107620
   10.4090    0.109164
   10.4100    0.110776
   10.4110    0.112422
   10.4120    0.114117
   10.4130    0.115848
   10.4140    0.117603
   10.4150    0.119357
   10.4160    0.121112
   10.4170    0.122893
   10.4180    0.124703
   10.4190    0.126533
   10.4200    0.128363
   10.4210    0.130193
   10.4220    0.132023
   10.4230    0.133887
   10.4240    0.135761
   10.4250    0.137635
   10.4260    0.139508
   10.4270    0.141382
   10.4280    0.143286
   10.4290    0.145193
   10.4300    0.147112
   10.4310    0.149053
   10.4320    0.150994
   10.4330    0.152935
   10.4340    0.154876
   10.4350    0.156818
   10.4360    0.158759
   10.4370    0.160700
   10.4380    0.162641
   10.4390    0.164582
   10.4400    0.166523
   10.4410    0.168465
   10.4420    0.170406
   10.4430    0.172347
   10.4440    0.174288
   10.4450    0.176229
   10.4460    0.178170
   10.4470    0.180111
   10.4480    0.182053
   10.4490    0.183994
   10.4500    0.185935
   10.4510    0.187876
   10.4520    0.189817
   10.4530    0.191758
   10.4540    0.193700
   10.4550    0.195641
   10.4560    0.197582
   10.4570    0.199546
   10.4580    0.201521
   10.4590    0.203496
   10.4600    0.205495
   10.4610    0.207516
   10.4620    0.209537
   10.4630    0.211558
   10.4640    0.213578
   10.4650    0.215599
   10.4660    0.217620
   10.4670    0.219640
   10.4680    0.221661
   10.4690    0.223682
   10.4700    0.225702
   10.4710    0.227723
   10.4720    0.229744
   10.4730    0.231765
   10.4740    0.233785
   10.4750    0.235806
   10.4760    0.237827
   10.4770    0.239847
   10.4780    0.241868
   10.4790    0.243889
   10.4800    0.245909
   10.4810    0.247930
   10.4820    0.249983
   10.4830    0.252134
   10.4840    0.254420
   10.4850    0.256754
   10.4860    0.259158
   10.4870    0.261636
   10.4880    0.264150
   10.4890    0.266909
   10.4900    0.269776
   10.4910    0.272698
   10.4920    0.275673
   10.4930    0.278692
   10.4940    0.281749
   10.4950    0.284807
   10.4960    0.287864
   10.4970    0.290964
   10.4980    0.294089
   10.4990    0.297229
   10.5000    0.300368
   10.5010    0.303508
   10.5020    0.306648
   10.5030    0.309810
   10.5040    0.312979
   10.5050    0.316148
   10.5060    0.319317
   10.5070    0.322486
   10.5080    0.325702
   10.5090    0.328923
   10.5100    0.332163
   10.5110    0.335437
   10.5120    0.338711
   10.5130    0.341985
   10.5140    0.345260
   10.5150    0.348534
   10.5160    0.351808
   10.5170    0.355083
   10.5180    0.358357
   10.5190    0.361631
   10.5200    0.364906
   10.5210    0.368180
   10.5220    0.371454
   10.5230    0.374728
   10.5240    0.378003
   10.5250    0.381277
   10.5260    0.384551
   10.5270    0.387826
   10.5280    0.391100
   10.5290    0.394374
   10.5300    0.397649
   10.5310    0.400923
   10.5320    0.404197
   10.5330    0.407471
   10.5340    0.410746
   10.5350    0.414021
   10.5360    0.417295
   10.5370    0.420606
   10.5380    0.423934
   10.5390    0.427262
   10.5400    0.430604
   10.5410    0.433959
   10.5420    0.437313
   10.5430    0.440668
   10.5440    0.444022
   10.5450    0.447377
   10.5460    0.450731
   10.5470    0.454086
   10.5480    0.457440
   10.5490    0.460795
   10.5500    0.464149
   10.5510    0.467504
   10.5520    0.470858
   10.5530    0.474212
   10.5540    0.477567
   10.5550    0.480921
   10.5560    0.484276
   10.5570    0.487630
   10.5580    0.490985
   10.5590    0.494339
   10.5600    0.497694
   10.5610    0.501048
   10.5620    0.504388
   10.5630    0.507683
   10.5640    0.510908
   10.5650    0.514127
   10.5660    0.517359
   10.5670    0.520580
   10.5680    0.523801
   10.5690    0.527098
   10.5700    0.530435
   10.5710    0.533795
   10.5720    0.537158
   10.5730    0.540532
   10.5740    0.543922
   10.5750    0.547312
   10.5760    0.550702
   10.5770    0.554112
   10.5780    0.557517
   10.5790    0.560914
   10.5800    0.564312
   10.5810    0.567709
   10.5820    0.571106
   10.5830    0.574490
   10.5840    0.577869
   10.5850    0.581249
   10.5860    0.584628
   10.5870    0.588006
   10.5880    0.591405
   10.5890    0.594805
   10.5900    0.598213
   10.5910    0.601634
   10.5920    0.605056
   10.5930    0.608477
   10.5940    0.611899
   10.5950    0.615321
   10.5960    0.618742
   10.5970    0.622164
   10.5980    0.625586
   10.5990    0.629007
   10.6000    0.632429
   10.6010    0.635850
   10.6020    0.639272
   10.6030    0.642694
   10.6040    0.646115
   10.6050    0.649537
   10.6060    0.652959
   10.6070    0.656380
   10.6080    0.659802
   10.6090    0.663224
   10.6100    0.666645
   10.6110    0.670067
   10.6120    0.673488
   10.6130    0.676910
   10.6140    0.680332
   10.6150    0.683753
   10.6160    0.687175
   10.6170    0.690608
   10.6180    0.694048
   10.6190    0.697487
   10.6200    0.700914
   10.6210    0.704331
   10.6220    0.707747
   10.6230    0.711164
   10.6240    0.714580
   10.6250    0.717996
   10.6260    0.721413
   10.6270    0.724829
   10.6280    0.728246
   10.6290    0.731662
   10.6300    0.735079
   10.6310    0.738495
   10.6320    0.741911
   10.6330    0.745328
   10.6340    0.748745
   10.6350    0.752162
   10.6360    0.755578
   10.6370    0.758995
   10.6380    0.762411
   10.6390    0.765827
   10.6400    0.769244
   10.6410    0.772660
   10.6420    0.776040
   10.6430    0.779306
   10.6440    0.782414
   10.6450    0.785467
   10.6460    0.788444
   10.6470    0.791338
   10.6480    0.794191
   10.6490    0.796785
   10.6500    0.799271
   10.6510    0.801705
   10.6520    0.804082
   10.6530    0.806412
   10.6540    0.808706
   10.6550    0.810999
   10.6560    0.813293
   10.6570    0.815543
   10.6580    0.817762
   10.6590    0.819959
   10.6600    0.822157
   10.6610    0.824355
   10.6620    0.826553
   10.6630    0.828716
   10.6640    0.830870
   10.6650    0.833024
   10.6660    0.835178
   10.6670    0.837331
   10.6680    0.839434
   10.6690    0.841530
   10.6700    0.843607
   10.6710    0.845648
   10.6720    0.847688
   10.6730    0.849728
   10.6740    0.851768
   10.6750    0.853809
   10.6760    0.855849
   10.6770    0.857889
   10.6780    0.859929
   10.6790    0.861970
   10.6800    0.864010
   10.6810    0.866050
   10.6820    0.868091
   10.6830    0.870131
   10.6840    0.872171
   10.6850    0.874211
   10.6860    0.876252
   10.6870    0.878292
   10.6880    0.880332
   10.6890    0.882373
   10.6900    0.884413
   10.6910    0.886453
   10.6920    0.888493
   10.6930    0.890534
   10.6940    0.892574
   10.6950    0.894614
   10.6960    0.896655
   10.6970    0.898654
   10.6980    0.900633
   10.6990    0.902613
   10.7000    0.904568
   10.7010    0.906503
   10.7020    0.908437
   10.7030    0.910371
   10.7040    0.912305
   10.7050    0.914240
   10.7060    0.916175
   10.7070    0.918109
   10.7080    0.920044
   10.7090    0.921978
   10.7100    0.923912
   10.7110    0.925846
   10.7120    0.927781
   10.7130    0.929715
   10.7140    0.931649
   10.7150    0.933584
   10.7160    0.935518
   10.7170    0.937452
   10.7180    0.939386
   10.7190    0.941321
   10.7200    0.943255
   10.7210    0.945189
   10.7220    0.947085
   10.7230    0.948851
   10.7240    0.950441
   10.7250    0.951978
   10.7260    0.953449
   10.7270    0.954826
   10.7280    0.956162
   10.7290    0.957269
   10.7300    0.958278
   10.7310    0.959232
   10.7320    0.960124
   10.7330    0.960966
   10.7340    0.961768
   10.7350    0.962571
   10.7360    0.963374
   10.7370    0.964130
   10.7380    0.964854
   10.7390    0.965555
   10.7400    0.966256
   10.7410    0.966956
   10.7420    0.967657
   10.7430    0.968323
   10.7440    0.968978
   10.7450    0.969633
   10.7460    0.970288
   10.7470    0.970944
   10.7480    0.971549
   10.7490    0.972147
   10.7500    0.972728
   10.7510    0.973272
   10.7520    0.973816
   10.7530    0.974360
   10.7540    0.974905
   10.7550    0.975449
   10.7560    0.975993
   10.7570    0.976537
   10.7580    0.977082
   10.7590    0.977626
   10.7600    0.978170
   10.7610    0.978714
   10.7620    0.979258
   10.7630    0.979803
   10.7640    0.980347
   10.7650    0.980891
   10.7660    0.981435
   10.7670    0.981980
   10.7680    0.982524
   10.7690    0.983068
   10.7700    0.983612
   10.7710    0.984157
   10.7720    0.984701
   10.7730    0.985245
   10.7740    0.985789
   10.7750    0.986333
   10.7760    0.986878
   10.7770    0.987386
   10.7780    0.987876
   10.7790    0.988366
   10.7800    0.988833
   10.7810    0.989281
   10.7820    0.989728
   10.7830    0.990175
   10.7840    0.990622
   10.7850    0.991070
   10.7860    0.991517
   10.7870    0.991964
   10.7880    0.992412
   10.7890    0.992859
   10.7900    0.993306
   10.7910    0.993753
   10.7920    0.994201
   10.7930    0.994648
   10.7940    0.995095
   10.7950    0.995543
   10.7960    0.995990
   10.7970    0.996437
   10.7980    0.996884
   10.7990    0.997332
   10.8000    0.997779
   10.8010    0.998226
   10.8020    0.998652
   10.8030    0.999011
   10.8040    0.999284
   10.8050    0.999525
   10.8060    0.999726
   10.8070    0.999875
   10.8080    1.000000
   10.8090    0.999977
   10.8100    0.999888
   10.8110    0.999760
   10.8120    0.999599
   10.8130    0.999408
   10.8140    0.999191
   10.8150    0.998975
   10.8160    0.998758
   10.8170    0.998516
   10.8180    0.998259
   10.8190    0.997994
   10.8200    0.997730
   10.8210    0.997465
   10.8220    0.997200
   10.8230    0.996921
   10.8240    0.996639
   10.8250    0.996357
   10.8260    0.996075
   10.8270    0.995793
   10.8280    0.995485
   10.8290    0.995174
   10.8300    0.994852
   10.8310    0.994509
   10.8320    0.994166
   10.8330    0.993823
   10.8340    0.993480
   10.8350    0.993138
   10.8360    0.992795
   10.8370    0.992452
   10.8380    0.992109
   10.8390    0.991766
   10.8400    0.991423
   10.8410    0.991080
   10.8420    0.990737
   10.8430    0.990395
   10.8440    0.990052
   10.8450    0.989709
   10.8460    0.989366
   10.8470    0.989023
   10.8480    0.988680
   10.8490    0.988337
   10.8500    0.987994
   10.8510    0.987652
   10.8520    0.987309
   10.8530    0.986966
   10.8540    0.986623
   10.8550    0.986280
   10.8560    0.985937
   10.8570    0.985576
   10.8580    0.985206
   10.8590    0.984835
   10.8600    0.984458
   10.8610    0.984074
   10.8620    0.983691
   10.8630    0.983307
   10.8640    0.982924
   10.8650    0.982540
   10.8660    0.982157
   10.8670    0.981773
   10.8680    0.981390
   10.8690    0.981006
   10.8700    0.980623
   10.8710    0.980239
   10.8720    0.979856
   10.8730    0.979472
   10.8740    0.979089
   10.8750    0.978705
   10.8760    0.978322
   10.8770    0.977938
   10.8780    0.977555
   10.8790    0.977171
   10.8800    0.976788
   10.8810    0.976404
   10.8820    0.976010
   10.8830    0.975579
   10.8840    0.975102
   10.8850    0.974611
   10.8860    0.974105
   10.8870    0.973578
   10.8880    0.973042
   10.8890    0.972449
   10.8900    0.971833
   10.8910    0.971204
   10.8920    0.970564
   10.8930    0.969914
   10.8940    0.969256
   10.8950    0.968598
   10.8960    0.967940
   10.8970    0.967275
   10.8980    0.966607
   10.8990    0.965936
   10.9000    0.965265
   10.9010    0.964594
   10.9020    0.963923
   10.9030    0.963250
   10.9040    0.962576
   10.9050    0.961902
   10.9060    0.961228
   10.9070    0.960554
   10.9080    0.959877
   10.9090    0.959199
   10.9100    0.958519
   10.9110    0.957835
   10.9120    0.957151
   10.9130    0.956466
   10.9140    0.955782
   10.9150    0.955098
   10.9160    0.954413
   10.9170    0.953729
   10.9180    0.953045
   10.9190    0.952360
   10.9200    0.951676
   10.9210    0.950992
   10.9220    0.950308
   10.9230    0.949623
   10.9240    0.948939
   10.9250    0.948255
   10.9260    0.947570
   10.9270    0.946886
   10.9280    0.946202
   10.9290    0.945517
   10.9300    0.944833
   10.9310    0.944149
   10.9320    0.943464
   10.9330    0.942780
   10.9340    0.942096
   10.9350    0.941412
   10.9360    0.940727
   10.9370    0.940039
   10.9380    0.939349
   10.9390    0.938660
   10.9400    0.937968
   10.9410    0.937276
   10.9420    0.936583
   10.9430    0.935891
   10.9440    0.935199
   10.9450    0.934506
   10.9460    0.933814
   10.9470    0.933121
   10.9480    0.932429
   10.9490    0.931736
   10.9500    0.931044
   10.9510    0.930351
   10.9520    0.929659
   10.9530    0.928966
   10.9540    0.928274
   10.9550    0.927581
   10.9560    0.926889
   10.9570    0.926197
   10.9580    0.925504
   10.9590    0.924812
   10.9600    0.924119
   10.9610    0.923427
   10.9620    0.922760
   10.9630    0.922171
   10.9640    0.921689
   10.9650    0.921239
   10.9660    0.920820
   10.9670    0.920449
   10.9680    0.920098
   10.9690    0.919849
   10.9700    0.919641
   10.9710    0.919456
   10.9720    0.919300
   10.9730    0.919166
   10.9740    0.919049
   10.9750    0.918931
   10.9760    0.918814
   10.9770    0.918712
   10.9780    0.918626
   10.9790    0.918552
   10.9800    0.918478
   10.9810    0.918404
   10.9820    0.918330
   10.9830    0.918276
   10.9840    0.918229
   10.9850    0.918181
   10.9860    0.918134
   10.9870    0.918086
   10.9880    0.918056
   10.9890    0.918029
   10.9900    0.918009
   10.9910    0.918003
   10.9920    0.917998
   10.9930    0.917992
   10.9940    0.917986
   10.9950    0.917981
   10.9960    0.917975
   10.9970    0.917969
   10.9980    0.917963
   10.9990    0.917958
   11.0000    0.917952
   11.0010    0.917946
   11.0020    0.917941
   11.0030    0.917935
   11.0040    0.917929
   11.0050    0.917924
   11.0060    0.917918
   11.0070    0.917912
   11.0080    0.917907
   11.0090    0.917901
   11.0100    0.917895
   11.0110    0.917890
   11.0120    0.917884
   11.0130    0.917878
   11.0140    0.917873
   11.0150    0.917867
   11.0160    0.917861
   11.0170    0.917871
   11.0180    0.917887
   11.0190    0.917904
   11.0200    0.917934
   11.0210    0.917975
   11.0220    0.918016
   11.0230    0.918056
   11.0240    0.918097
   11.0250    0.918138
   11.0260    0.918179
   11.0270    0.918220
   11.0280    0.918261
   11.0290    0.918302
   11.0300    0.918343
   11.0310    0.918384
   11.0320    0.918425
   11.0330    0.918466
   11.0340    0.918507
   11.0350    0.918548
   11.0360    0.918589
   11.0370    0.918630
   11.0380    0.918671
   11.0390    0.918712
   11.0400    0.918753
   11.0410    0.918794
   11.0420    0.918844
   11.0430    0.918924
   11.0440    0.919040
   11.0450    0.919171
   11.0460    0.919325
   11.0470    0.919500
   11.0480    0.919687
   11.0490    0.919959
   11.0500    0.920268
   11.0510    0.920591
   11.0520    0.920931
   11.0530    0.921283
   11.0540    0.921647
   11.0550    0.922010
   11.0560    0.922374
   11.0570    0.922751
   11.0580    0.923135
   11.0590    0.923524
   11.0600    0.923912
   11.0610    0.924300
   11.0620    0.924689
   11.0630    0.925083
   11.0640    0.925479
   11.0650    0.925874
   11.0660    0.926270
   11.0670    0.926666
   11.0680    0.927076
   11.0690    0.927488
   11.0700    0.927905
   11.0710    0.928332
   11.0720    0.928760
   11.0730    0.929187
   11.0740    0.929614
   11.0750    0.930042
   11.0760    0.930469
   11.0770    0.930897
   11.0780    0.931324
   11.0790    0.931751
   11.0800    0.932179
   11.0810    0.932606
   11.0820    0.933034
   11.0830    0.933461
   11.0840    0.933888
   11.0850    0.934316
   11.0860    0.934743
   11.0870    0.935171
   11.0880    0.935598
   11.0890    0.936025
   11.0900    0.936453
   11.0910    0.936880
   11.0920    0.937308
   11.0930    0.937735
   11.0940    0.938162
   11.0950    0.938590
   11.0960    0.939017
   11.0970    0.939457
   11.0980    0.939902
   11.0990    0.940348
   11.1000    0.940796
   11.1010    0.941248
   11.1020    0.941700
   11.1030    0.942152
   11.1040    0.942604
   11.1050    0.943056
   11.1060    0.943507
   11.1070    0.943959
   11.1080    0.944411
   11.1090    0.944863
   11.1100    0.945315
   11.1110    0.945767
   11.1120    0.946218
   11.1130    0.946670
   11.1140    0.947122
   11.1150    0.947574
   11.1160    0.948026
   11.1170    0.948478
   11.1180    0.948929
   11.1190    0.949381
   11.1200    0.949833
   11.1210    0.950285
   11.1220    0.950720
   11.1230    0.951102
   11.1240    0.951414
   11.1250    0.951706
   11.1260    0.951975
   11.1270    0.952207
   11.1280    0.952424
   11.1290    0.952564
   11.1300    0.952675
   11.1310    0.952770
   11.1320    0.952841
   11.1330    0.952894
   11.1340    0.952935
   11.1350    0.952975
   11.1360    0.953016
   11.1370    0.953045
   11.1380    0.953061
   11.1390    0.953067
   11.1400    0.953074
   11.1410    0.953081
   11.1420    0.953088
   11.1430    0.953077
   11.1440    0.953062
   11.1450    0.953047
   11.1460    0.953032
   11.1470    0.953016
   11.1480    0.952988
   11.1490    0.952958
   11.1500    0.952922
   11.1510    0.952875
   11.1520    0.952829
   11.1530    0.952782
   11.1540    0.952735
   11.1550    0.952689
   11.1560    0.952642
   11.1570    0.952595
   11.1580    0.952549
   11.1590    0.952502
   11.1600    0.952456
   11.1610    0.952409
   11.1620    0.952362
   11.1630    0.952316
   11.1640    0.952269
   11.1650    0.952222
   11.1660    0.952176
   11.1670    0.952129
   11.1680    0.952082
   11.1690    0.952036
   11.1700    0.951989
   11.1710    0.951943
   11.1720    0.951896
   11.1730    0.951849
   11.1740    0.951803
   11.1750    0.951756
   11.1760    0.951709
   11.1770    0.951650
   11.1780    0.951585
   11.1790    0.951520
   11.1800    0.951444
   11.1810    0.951359
   11.1820    0.951274
   11.1830    0.951189
   11.1840    0.951104
   11.1850    0.951019
   11.1860    0.950934
   11.1870    0.950849
   11.1880    0.950764
   11.1890    0.950679
   11.1900    0.950594
   11.1910    0.950509
   11.1920    0.950424
   11.1930    0.950339
   11.1940    0.950254
   11.1950    0.950169
   11.1960    0.950084
   11.1970    0.949999
   11.1980    0.949914
   11.1990    0.949829
   11.2000    0.949744
   11.2010    0.949659
   11.2020    0.949570
   11.2030    0.949460
   11.2040    0.949324
   11.2050    0.949179
   11.2060    0.949018
   11.2070    0.948842
   11.2080    0.948659
   11.2090    0.948418
   11.2100    0.948150
   11.2110    0.947872
   11.2120    0.947585
   11.2130    0.947290
   11.2140    0.946991
   11.2150    0.946691
   11.2160    0.946391
   11.2170    0.946083
   11.2180    0.945770
   11.2190    0.945455
   11.2200    0.945140
   11.2210    0.944825
   11.2220    0.944510
   11.2230    0.944192
   11.2240    0.943873
   11.2250    0.943554
   11.2260    0.943235
   11.2270    0.942917
   11.2280    0.942588
   11.2290    0.942258
   11.2300    0.941924
   11.2310    0.941585
   11.2320    0.941245
   11.2330    0.940906
   11.2340    0.940566
   11.2350    0.940227
   11.2360    0.939887
   11.2370    0.939547
   11.2380    0.939208
   11.2390    0.938868
   11.2400    0.938529
   11.2410    0.938189
   11.2420    0.937849
   11.2430    0.937510
   11.2440    0.937170
   11.2450    0.936831
   11.2460    0.936491
   11.2470    0.936151
   11.2480    0.935812
   11.2490    0.935472
   11.2500    0.935133
   11.2510    0.934793
   11.2520    0.934453
   11.2530    0.934114
   11.2540    0.933774
   11.2550    0.933435
   11.2560    0.933095
   11.2570    0.932748
   11.2580    0.932397
   11.2590    0.932047
   11.2600    0.931693
   11.2610    0.931337
   11.2620    0.930981
   11.2630    0.930625
   11.2640    0.930269
   11.2650    0.929913
   11.2660    0.929557
   11.2670    0.929201
   11.2680    0.928845
   11.2690    0.928489
   11.2700    0.928133
   11.2710    0.927777
   11.2720    0.927421
   11.2730    0.927065
   11.2740    0.926709
   11.2750    0.926353
   11.2760    0.925997
   11.2770    0.925641
   11.2780    0.925285
   11.2790    0.924929
   11.2800    0.924573
   11.2810    0.924217
   11.2820    0.923857
   11.2830    0.923492
   11.2840    0.923112
   11.2850    0.922729
   11.2860    0.922349
   11.2870    0.921971
   11.2880    0.921596
   11.2890    0.921244
   11.2900    0.920898
   11.2910    0.920558
   11.2920    0.920222
   11.2930    0.919891
   11.2940    0.919563
   11.2950    0.919236
   11.2960    0.918908
   11.2970    0.918586
   11.2980    0.918265
   11.2990    0.917944
   11.3000    0.917623
   11.3010    0.917302
   11.3020    0.916981
   11.3030    0.916662
   11.3040    0.916344
   11.3050    0.916025
   11.3060    0.915706
   11.3070    0.915388
   11.3080    0.915075
   11.3090    0.914764
   11.3100    0.914454
   11.3110    0.914149
   11.3120    0.913844
   11.3130    0.913540
   11.3140    0.913235
   11.3150    0.912930
   11.3160    0.912627
   11.3170    0.912322
   11.3180    0.912017
   11.3190    0.911712
   11.3200    0.911408
   11.3210    0.911103
   11.3220    0.910800
   11.3230    0.910495
   11.3240    0.910190
   11.3250    0.909885
   11.3260    0.909580
   11.3270    0.909276
   11.3280    0.908971
   11.3290    0.908668
   11.3300    0.908363
   11.3310    0.908058
   11.3320    0.907753
   11.3330    0.907448
   11.3340    0.907144
   11.3350    0.906839
   11.3360    0.906536
   11.3370    0.906235
   11.3380    0.905936
   11.3390    0.905638
   11.3400    0.905337
   11.3410    0.905034
   11.3420    0.904730
   11.3430    0.904426
   11.3440    0.904122
   11.3450    0.903819
   11.3460    0.903515
   11.3470    0.903211
   11.3480    0.902908
   11.3490    0.902604
   11.3500    0.902300
   11.3510    0.901996
   11.3520    0.901693
   11.3530    0.901389
   11.3540    0.901085
   11.3550    0.900782
   11.3560    0.900478
   11.3570    0.900174
   11.3580    0.899870
   11.3590    0.899567
   11.3600    0.899263
   11.3610    0.898959
   11.3620    0.898665
   11.3630    0.898408
   11.3640    0.898201
   11.3650    0.898003
   11.3660    0.897809
   11.3670    0.897635
   11.3680    0.897468
   11.3690    0.897303
   11.3700    0.897139
   11.3710    0.896980
   11.3720    0.896829
   11.3730    0.896683
   11.3740    0.896539
   11.3750    0.896395
   11.3760    0.896251
   11.3770    0.896110
   11.3780    0.895976
   11.3790    0.895848
   11.3800    0.895720
   11.3810    0.895592
   11.3820    0.895464
   11.3830    0.895343
   11.3840    0.895224
   11.3850    0.895105
   11.3860    0.894986
   11.3870    0.894866
   11.3880    0.894748
   11.3890    0.894631
   11.3900    0.894513
   11.3910    0.894396
   11.3920    0.894278
   11.3930    0.894161
   11.3940    0.894043
   11.3950    0.893926
   11.3960    0.893808
   11.3970    0.893691
   11.3980    0.893574
   11.3990    0.893456
   11.4000    0.893339
   11.4010    0.893221
   11.4020    0.893104
   11.4030    0.892987
   11.4040    0.892869
   11.4050    0.892752
   11.4060    0.892634
   11.4070    0.892517
   11.4080    0.892400
   11.4090    0.892282
   11.4100    0.892165
   11.4110    0.892047
   11.4120    0.891930
   11.4130    0.891812
   11.4140    0.891695
   11.4150    0.891578
   11.4160    0.891460
   11.4170    0.891340
   11.4180    0.891218
   11.4190    0.891096
   11.4200    0.890978
   11.4210    0.890864
   11.4220    0.890749
   11.4230    0.890635
   11.4240    0.890520
   11.4250    0.890406
   11.4260    0.890292
   11.4270    0.890177
   11.4280    0.890063
   11.4290    0.889949
   11.4300    0.889834
   11.4310    0.889720
   11.4320    0.889605
   11.4330    0.889491
   11.4340    0.889377
   11.4350    0.889262
   11.4360    0.889148
   11.4370    0.889033
   11.4380    0.888919
   11.4390    0.888805
   11.4400    0.888690
   11.4410    0.888576
   11.4420    0.888466
   11.4430    0.888367
   11.4440    0.888282
   11.4450    0.888206
   11.4460    0.888151
   11.4470    0.888115
   11.4480    0.888088
   11.4490    0.888146
   11.4500    0.888238
   11.4510    0.888351
   11.4520    0.888478
   11.4530    0.888620
   11.4540    0.888778
   11.4550    0.888936
   11.4560    0.889094
   11.4570    0.889265
   11.4580    0.889440
   11.4590    0.889614
   11.4600    0.889789
   11.4610    0.889964
   11.4620    0.890139
   11.4630    0.890316
   11.4640    0.890494
   11.4650    0.890672
   11.4660    0.890850
   11.4670    0.891028
   11.4680    0.891220
   11.4690    0.891415
   11.4700    0.891615
   11.4710    0.891828
   11.4720    0.892041
   11.4730    0.892253
   11.4740    0.892466
   11.4750    0.892679
   11.4760    0.892891
   11.4770    0.893104
   11.4780    0.893317
   11.4790    0.893529
   11.4800    0.893742
   11.4810    0.893955
   11.4820    0.894167
   11.4830    0.894380
   11.4840    0.894593
   11.4850    0.894805
   11.4860    0.895018
   11.4870    0.895231
   11.4880    0.895443
   11.4890    0.895656
   11.4900    0.895869
   11.4910    0.896081
   11.4920    0.896294
   11.4930    0.896507
   11.4940    0.896719
   11.4950    0.896932
   11.4960    0.897145
   11.4970    0.897369
   11.4980    0.897600
   11.4990    0.897831
   11.5000    0.898063
   11.5010    0.898298
   11.5020    0.898532
   11.5030    0.898766
   11.5040    0.899001
   11.5050    0.899235
   11.5060    0.899469
   11.5070    0.899703
   11.5080    0.899938
   11.5090    0.900172
   11.5100    0.900406
   11.5110    0.900641
   11.5120    0.900875
   11.5130    0.901109
   11.5140    0.901344
   11.5150    0.901578
   11.5160    0.901812
   11.5170    0.902047
   11.5180    0.902281
   11.5190    0.902515
   11.5200    0.902750
   11.5210    0.902984
   11.5220    0.903228
   11.5230    0.903510
   11.5240    0.903843
   11.5250    0.904183
   11.5260    0.904527
   11.5270    0.904886
   11.5280    0.905248
   11.5290    0.905608
   11.5300    0.905963
   11.5310    0.906316
   11.5320    0.906672
   11.5330    0.907030
   11.5340    0.907384
   11.5350    0.907736
   11.5360    0.908090
   11.5370    0.908439
   11.5380    0.908792
   11.5390    0.909149
   11.5400    0.909506
   11.5410    0.909863
   11.5420    0.910219
   11.5430    0.910581
   11.5440    0.910945
   11.5450    0.911309
   11.5460    0.911672
   11.5470    0.912036
   11.5480    0.912391
   11.5490    0.912744
   11.5500    0.913096
   11.5510    0.913442
   11.5520    0.913790
   11.5530    0.914136
   11.5540    0.914483
   11.5550    0.914831
   11.5560    0.915177
   11.5570    0.915524
   11.5580    0.915872
   11.5590    0.916218
   11.5600    0.916565
   11.5610    0.916912
   11.5620    0.917259
   11.5630    0.917606
   11.5640    0.917953
   11.5650    0.918300
   11.5660    0.918646
   11.5670    0.918993
   11.5680    0.919340
   11.5690    0.919687
   11.5700    0.920034
   11.5710    0.920381
   11.5720    0.920728
   11.5730    0.921075
   11.5740    0.921422
   11.5750    0.921768
   11.5760    0.922115
   11.5770    0.922457
   11.5780    0.922797
   11.5790    0.923136
   11.5800    0.923481
   11.5810    0.923832
   11.5820    0.924182
   11.5830    0.924533
   11.5840    0.924883
   11.5850    0.925233
   11.5860    0.925584
   11.5870    0.925934
   11.5880    0.926285
   11.5890    0.926635
   11.5900    0.926985
   11.5910    0.927336
   11.5920    0.927686
   11.5930    0.928036
   11.5940    0.928387
   11.5950    0.928737
   11.5960    0.929088
   11.5970    0.929438
   11.5980    0.929788
   11.5990    0.930139
   11.6000    0.930489
   11.6010    0.930840
   11.6020    0.931160
   11.6030    0.931381
   11.6040    0.931473
   11.6050    0.931533
   11.6060    0.931563
   11.6070    0.931536
   11.6080    0.931484
   11.6090    0.931340
   11.6100    0.931163
   11.6110    0.930969
   11.6120    0.930742
   11.6130    0.930490
   11.6140    0.930226
   11.6150    0.929962
   11.6160    0.929697
   11.6170    0.929419
   11.6180    0.929121
   11.6190    0.928806
   11.6200    0.928491
   11.6210    0.928177
   11.6220    0.927862
   11.6230    0.927520
   11.6240    0.927170
   11.6250    0.926819
   11.6260    0.926469
   11.6270    0.926119
   11.6280    0.925754
   11.6290    0.925388
   11.6300    0.925016
   11.6310    0.924630
   11.6320    0.924245
   11.6330    0.923859
   11.6340    0.923474
   11.6350    0.923089
   11.6360    0.922703
   11.6370    0.922318
   11.6380    0.921932
   11.6390    0.921547
   11.6400    0.921161
   11.6410    0.920776
   11.6420    0.920390
   11.6430    0.920005
   11.6440    0.919619
   11.6450    0.919234
   11.6460    0.918849
   11.6470    0.918463
   11.6480    0.918078
   11.6490    0.917692
   11.6500    0.917307
   11.6510    0.916921
   11.6520    0.916536
   11.6530    0.916150
   11.6540    0.915765
   11.6550    0.915379
   11.6560    0.914993
   11.6570    0.914598
   11.6580    0.914198
   11.6590    0.913796
   11.6600    0.913383
   11.6610    0.912959
   11.6620    0.912533
   11.6630    0.912108
   11.6640    0.911683
   11.6650    0.911259
   11.6660    0.910834
   11.6670    0.910410
   11.6680    0.909984
   11.6690    0.909559
   11.6700    0.909135
   11.6710    0.908710
   11.6720    0.908285
   11.6730    0.907860
   11.6740    0.907435
   11.6750    0.907010
   11.6760    0.906585
   11.6770    0.906160
   11.6780    0.905736
   11.6790    0.905311
   11.6800    0.904886
   11.6810    0.904461
   11.6820    0.904039
   11.6830    0.903622
   11.6840    0.903209
   11.6850    0.902791
   11.6860    0.902359
   11.6870    0.901925
   11.6880    0.901487
   11.6890    0.900992
   11.6900    0.900469
   11.6910    0.899929
   11.6920    0.899386
   11.6930    0.898837
   11.6940    0.898279
   11.6950    0.897722
   11.6960    0.897164
   11.6970    0.896594
   11.6980    0.896026
   11.6990    0.895460
   11.7000    0.894894
   11.7010    0.894328
   11.7020    0.893763
   11.7030    0.893206
   11.7040    0.892652
   11.7050    0.892097
   11.7060    0.891543
   11.7070    0.890989
   11.7080    0.890425
   11.7090    0.889860
   11.7100    0.889292
   11.7110    0.888717
   11.7120    0.888143
   11.7130    0.887568
   11.7140    0.886994
   11.7150    0.886419
   11.7160    0.885845
   11.7170    0.885270
   11.7180    0.884696
   11.7190    0.884121
   11.7200    0.883547
   11.7210    0.882972
   11.7220    0.882398
   11.7230    0.881823
   11.7240    0.881249
   11.7250    0.880674
   11.7260    0.880100
   11.7270    0.879525
   11.7280    0.878951
   11.7290    0.878376
   11.7300    0.877802
   11.7310    0.877227
   11.7320    0.876653
   11.7330    0.876078
   11.7340    0.875504
   11.7350    0.874929
   11.7360    0.874355
   11.7370    0.873774
   11.7380    0.873189
   11.7390    0.872605
   11.7400    0.872021
   11.7410    0.871437
   11.7420    0.870854
   11.7430    0.870270
   11.7440    0.869687
   11.7450    0.869103
   11.7460    0.868520
   11.7470    0.867936
   11.7480    0.867353
   11.7490    0.866769
   11.7500    0.866186
   11.7510    0.865602
   11.7520    0.865019
   11.7530    0.864435
   11.7540    0.863852
   11.7550    0.863268
   11.7560    0.862685
   11.7570    0.862101
   11.7580    0.861518
   11.7590    0.860934
   11.7600    0.860351
   11.7610    0.859768
   11.7620    0.859196
   11.7630    0.858671
   11.7640    0.858214
   11.7650    0.857781
   11.7660    0.857383
   11.7670    0.857019
   11.7680    0.856673
   11.7690    0.856449
   11.7700    0.856280
   11.7710    0.856138
   11.7720    0.856020
   11.7730    0.855923
   11.7740    0.855843
   11.7750    0.855762
   11.7760    0.855682
   11.7770    0.855624
   11.7780    0.855579
   11.7790    0.855541
   11.7800    0.855504
   11.7810    0.855466
   11.7820    0.855428
   11.7830    0.855401
   11.7840    0.855377
   11.7850    0.855353
   11.7860    0.855329
   11.7870    0.855305
   11.7880    0.855305
   11.7890    0.855309
   11.7900    0.855320
   11.7910    0.855347
   11.7920    0.855374
   11.7930    0.855401
   11.7940    0.855428
   11.7950    0.855455
   11.7960    0.855482
   11.7970    0.855509
   11.7980    0.855537
   11.7990    0.855564
   11.8000    0.855591
   11.8010    0.855618
   11.8020    0.855645
   11.8030    0.855672
   11.8040    0.855699
   11.8050    0.855726
   11.8060    0.855753
   11.8070    0.855780
   11.8080    0.855807
   11.8090    0.855834
   11.8100    0.855861
   11.8110    0.855889
   11.8120    0.855916
   11.8130    0.855943
   11.8140    0.855970
   11.8150    0.855997
   11.8160    0.856024
   11.8170    0.856066
   11.8180    0.856117
   11.8190    0.856167
   11.8200    0.856222
   11.8210    0.856283
   11.8220    0.856343
   11.8230    0.856403
   11.8240    0.856464
   11.8250    0.856524
   11.8260    0.856585
   11.8270    0.856645
   11.8280    0.856706
   11.8290    0.856766
   11.8300    0.856826
   11.8310    0.856887
   11.8320    0.856947
   11.8330    0.857008
   11.8340    0.857068
   11.8350    0.857129
   11.8360    0.857189
   11.8370    0.857250
   11.8380    0.857310
   11.8390    0.857370
   11.8400    0.857431
   11.8410    0.857491
   11.8420    0.857552
   11.8430    0.857604
   11.8440    0.857645
   11.8450    0.857683
   11.8460    0.857710
   11.8470    0.857725
   11.8480    0.857734
   11.8490    0.857699
   11.8500    0.857644
   11.8510    0.857578
   11.8520    0.857502
   11.8530    0.857418
   11.8540    0.857326
   11.8550    0.857234
   11.8560    0.857142
   11.8570    0.857039
   11.8580    0.856934
   11.8590    0.856827
   11.8600    0.856721
   11.8610    0.856614
   11.8620    0.856507
   11.8630    0.856400
   11.8640    0.856293
   11.8650    0.856186
   11.8660    0.856079
   11.8670    0.855972
   11.8680    0.855856
   11.8690    0.855739
   11.8700    0.855619
   11.8710    0.855492
   11.8720    0.855366
   11.8730    0.855240
   11.8740    0.855114
   11.8750    0.854988
   11.8760    0.854862
   11.8770    0.854735
   11.8780    0.854609
   11.8790    0.854483
   11.8800    0.854357
   11.8810    0.854231
   11.8820    0.854105
   11.8830    0.853978
   11.8840    0.853852
   11.8850    0.853726
   11.8860    0.853600
   11.8870    0.853474
   11.8880    0.853348
   11.8890    0.853221
   11.8900    0.853095
   11.8910    0.852969
   11.8920    0.852843
   11.8930    0.852717
   11.8940    0.852591
   11.8950    0.852464
   11.8960    0.852338
   11.8970    0.852208
   11.8980    0.852075
   11.8990    0.851943
   11.9000    0.851814
   11.9010    0.851687
   11.9020    0.851560
   11.9030    0.851433
   11.9040    0.851307
   11.9050    0.851180
   11.9060    0.851053
   11.9070    0.850926
   11.9080    0.850799
   11.9090    0.850673
   11.9100    0.850546
   11.9110    0.850419
   11.9120    0.850292
   11.9130    0.850166
   11.9140    0.850039
   11.9150    0.849912
   11.9160    0.849785
   11.9170    0.849659
   11.9180    0.849532
   11.9190    0.849405
   11.9200    0.849278
   11.9210    0.849151
   11.9220    0.849005
   11.9230    0.848794
   11.9240    0.848492
   11.9250    0.848165
   11.9260    0.847809
   11.9270    0.847407
   11.9280    0.846986
   11.9290    0.846469
   11.9300    0.845916
   11.9310    0.845336
   11.9320    0.844728
   11.9330    0.844099
   11.9340    0.843453
   11.9350    0.842807
   11.9360    0.842161
   11.9370    0.841499
   11.9380    0.840822
   11.9390    0.840134
   11.9400    0.839447
   11.9410    0.838759
   11.9420    0.838071
   11.9430    0.837365
   11.9440    0.836655
   11.9450    0.835944
   11.9460    0.835233
   11.9470    0.834522
   11.9480    0.833794
   11.9490    0.833064
   11.9500    0.832327
   11.9510    0.831577
   11.9520    0.830828
   11.9530    0.830078
   11.9540    0.829328
   11.9550    0.828578
   11.9560    0.827828
   11.9570    0.827079
   11.9580    0.826329
   11.9590    0.825579
   11.9600    0.824829
   11.9610    0.824079
   11.9620    0.823330
   11.9630    0.822580
   11.9640    0.821830
   11.9650    0.821080
   11.9660    0.820330
   11.9670    0.819581
   11.9680    0.818831
   11.9690    0.818081
   11.9700    0.817331
   11.9710    0.816582
   11.9720    0.815832
   11.9730    0.815082
   11.9740    0.814332
   11.9750    0.813582
   11.9760    0.812833
   11.9770    0.812074
   11.9780    0.811310
   11.9790    0.810547
   11.9800    0.809775
   11.9810    0.808994
   11.9820    0.808213
   11.9830    0.807433
   11.9840    0.806652
   11.9850    0.805872
   11.9860    0.805091
   11.9870    0.804311
   11.9880    0.803530
   11.9890    0.802750
   11.9900    0.801969
   11.9910    0.801188
   11.9920    0.800408
   11.9930    0.799627
   11.9940    0.798847
   11.9950    0.798066
   11.9960    0.797286
   11.9970    0.796505
   11.9980    0.795724
   11.9990    0.794944
   12.0000    0.794163
   12.0010    0.793383
   12.0020    0.792602
   12.0030    0.791816
   12.0040    0.791028
   12.0050    0.790240
   12.0060    0.789453
   12.0070    0.788662
   12.0080    0.787870
   12.0090    0.787077
   12.0100    0.786286
   12.0110    0.785495
   12.0120    0.784702
   12.0130    0.783908
   12.0140    0.783115
   12.0150    0.782321
   12.0160    0.781527
   12.0170    0.780735
   12.0180    0.779942
   12.0190    0.779150
   12.0200    0.778358
   12.0210    0.777566
   12.0220    0.776775
   12.0230    0.775982
   12.0240    0.775189
   12.0250    0.774396
   12.0260    0.773603
   12.0270    0.772810
   12.0280    0.772019
   12.0290    0.771228
   12.0300    0.770438
   12.0310    0.769647
   12.0320    0.768857
   12.0330    0.768066
   12.0340    0.767275
   12.0350    0.766485
   12.0360    0.765694
   12.0370    0.764904
   12.0380    0.764113
   12.0390    0.763323
   12.0400    0.762532
   12.0410    0.761742
   12.0420    0.760951
   12.0430    0.760161
   12.0440    0.759370
   12.0450    0.758580
   12.0460    0.757789
   12.0470    0.756998
   12.0480    0.756208
   12.0490    0.755417
   12.0500    0.754627
   12.0510    0.753836
   12.0520    0.753046
   12.0530    0.752255
   12.0540    0.751465
   12.0550    0.750674
   12.0560    0.749884
   12.0570    0.749097
   12.0580    0.748311
   12.0590    0.747526
   12.0600    0.746742
   12.0610    0.745963
   12.0620    0.745184
   12.0630    0.744405
   12.0640    0.743626
   12.0650    0.742847
   12.0660    0.742068
   12.0670    0.741289
   12.0680    0.740510
   12.0690    0.739730
   12.0700    0.738951
   12.0710    0.738172
   12.0720    0.737393
   12.0730    0.736614
   12.0740    0.735835
   12.0750    0.735056
   12.0760    0.734277
   12.0770    0.733498
   12.0780    0.732718
   12.0790    0.731939
   12.0800    0.731160
   12.0810    0.730381
   12.0820    0.729607
   12.0830    0.728848
   12.0840    0.728105
   12.0850    0.727366
   12.0860    0.726637
   12.0870    0.725924
   12.0880    0.725220
   12.0890    0.724553
   12.0900    0.723903
   12.0910    0.723262
   12.0920    0.722636
   12.0930    0.722021
   12.0940    0.721415
   12.0950    0.720809
   12.0960    0.720203
   12.0970    0.719606
   12.0980    0.719014
   12.0990    0.718427
   12.1000    0.717840
   12.1010    0.717252
   12.1020    0.716665
   12.1030    0.716086
   12.1040    0.715510
   12.1050    0.714933
   12.1060    0.714357
   12.1070    0.713780
   12.1080    0.713214
   12.1090    0.712650
   12.1100    0.712090
   12.1110    0.711539
   12.1120    0.710988
   12.1130    0.710436
   12.1140    0.709885
   12.1150    0.709334
   12.1160    0.708783
   12.1170    0.708232
   12.1180    0.707681
   12.1190    0.707130
   12.1200    0.706579
   12.1210    0.706028
   12.1220    0.705476
   12.1230    0.704925
   12.1240    0.704374
   12.1250    0.703823
   12.1260    0.703272
   12.1270    0.702721
   12.1280    0.702170
   12.1290    0.701619
   12.1300    0.701068
   12.1310    0.700516
   12.1320    0.699965
   12.1330    0.699414
   12.1340    0.698863
   12.1350    0.698312
   12.1360    0.697761
   12.1370    0.697212
   12.1380    0.696665
   12.1390    0.696117
   12.1400    0.695566
   12.1410    0.695013
   12.1420    0.694459
   12.1430    0.693905
   12.1440    0.693352
   12.1450    0.692798
   12.1460    0.692244
   12.1470    0.691691
   12.1480    0.691137
   12.1490    0.690583
   12.1500    0.690030
   12.1510    0.689476
   12.1520    0.688922
   12.1530    0.688369
   12.1540    0.687815
   12.1550    0.687262
   12.1560    0.686708
   12.1570    0.686154
   12.1580    0.685601
   12.1590    0.685047
   12.1600    0.684493
   12.1610    0.683940
   12.1620    0.683410
   12.1630    0.682958
   12.1640    0.682619
   12.1650    0.682310
   12.1660    0.682032
   12.1670    0.681801
   12.1680    0.681591
   12.1690    0.681479
   12.1700    0.681406
   12.1710    0.681354
   12.1720    0.681327
   12.1730    0.681319
   12.1740    0.681322
   12.1750    0.681326
   12.1760    0.681329
   12.1770    0.681346
   12.1780    0.681379
   12.1790    0.681424
   12.1800    0.681469
   12.1810    0.681513
   12.1820    0.681558
   12.1830    0.681620
   12.1840    0.681686
   12.1850    0.681753
   12.1860    0.681819
   12.1870    0.681885
   12.1880    0.681965
   12.1890    0.682047
   12.1900    0.682134
   12.1910    0.682231
   12.1920    0.682328
   12.1930    0.682425
   12.1940    0.682522
   12.1950    0.682620
   12.1960    0.682717
   12.1970    0.682814
   12.1980    0.682911
   12.1990    0.683008
   12.2000    0.683105
   12.2010    0.683202
   12.2020    0.683299
   12.2030    0.683396
   12.2040    0.683493
   12.2050    0.683590
   12.2060    0.683687
   12.2070    0.683784
   12.2080    0.683881
   12.2090    0.683978
   12.2100    0.684075
   12.2110    0.684172
   12.2120    0.684269
   12.2130    0.684366
   12.2140    0.684463
   12.2150    0.684560
   12.2160    0.684657
   12.2170    0.684759
   12.2180    0.684864
   12.2190    0.684968
   12.2200    0.685079
   12.2210    0.685196
   12.2220    0.685313
   12.2230    0.685430
   12.2240    0.685547
   12.2250    0.685664
   12.2260    0.685781
   12.2270    0.685898
   12.2280    0.686015
   12.2290    0.686132
   12.2300    0.686249
   12.2310    0.686366
   12.2320    0.686483
   12.2330    0.686600
   12.2340    0.686717
   12.2350    0.686834
   12.2360    0.686951
   12.2370    0.687068
   12.2380    0.687185
   12.2390    0.687302
   12.2400    0.687419
   12.2410    0.687536
   12.2420    0.687637
   12.2430    0.687683
   12.2440    0.687651
   12.2450    0.687595
   12.2460    0.687512
   12.2470    0.687394
   12.2480    0.687259
   12.2490    0.687038
   12.2500    0.686782
   12.2510    0.686506
   12.2520    0.686207
   12.2530    0.685892
   12.2540    0.685564
   12.2550    0.685236
   12.2560    0.684908
   12.2570    0.684565
   12.2580    0.684206
   12.2590    0.683836
   12.2600    0.683466
   12.2610    0.683096
   12.2620    0.682726
   12.2630    0.682339
   12.2640    0.681946
   12.2650    0.681554
   12.2660    0.681162
   12.2670    0.680769
   12.2680    0.680358
   12.2690    0.679943
   12.2700    0.679523
   12.2710    0.679089
   12.2720    0.678656
   12.2730    0.678223
   12.2740    0.677790
   12.2750    0.677356
   12.2760    0.676923
   12.2770    0.676490
   12.2780    0.676057
   12.2790    0.675623
   12.2800    0.675190
   12.2810    0.674757
   12.2820    0.674324
   12.2830    0.673890
   12.2840    0.673457
   12.2850    0.673024
   12.2860    0.672590
   12.2870    0.672157
   12.2880    0.671724
   12.2890    0.671291
   12.2900    0.670857
   12.2910    0.670424
   12.2920    0.669991
   12.2930    0.669558
   12.2940    0.669124
   12.2950    0.668691
   12.2960    0.668258
   12.2970    0.667815
   12.2980    0.667367
   12.2990    0.666920
   12.3000    0.666464
   12.3010    0.666000
   12.3020    0.665537
   12.3030    0.665074
   12.3040    0.664611
   12.3050    0.664147
   12.3060    0.663684
   12.3070    0.663221
   12.3080    0.662758
   12.3090    0.662294
   12.3100    0.661831
   12.3110    0.661368
   12.3120    0.660905
   12.3130    0.660441
   12.3140    0.659978
   12.3150    0.659515
   12.3160    0.659051
   12.3170    0.658588
   12.3180    0.658125
   12.3190    0.657662
   12.3200    0.657198
   12.3210    0.656735
   12.3220    0.656247
   12.3230    0.655678
   12.3240    0.654997
   12.3250    0.654286
   12.3260    0.653535
   12.3270    0.652732
   12.3280    0.651905
   12.3290    0.650944
   12.3300    0.649926
   12.3310    0.648881
   12.3320    0.647802
   12.3330    0.646695
   12.3340    0.645569
   12.3350    0.644442
   12.3360    0.643315
   12.3370    0.642166
   12.3380    0.641002
   12.3390    0.639826
   12.3400    0.638651
   12.3410    0.637475
   12.3420    0.636299
   12.3430    0.635105
   12.3440    0.633904
   12.3450    0.632704
   12.3460    0.631504
   12.3470    0.630304
   12.3480    0.629079
   12.3490    0.627852
   12.3500    0.626615
   12.3510    0.625358
   12.3520    0.624102
   12.3530    0.622845
   12.3540    0.621589
   12.3550    0.620332
   12.3560    0.619076
   12.3570    0.617819
   12.3580    0.616563
   12.3590    0.615306
   12.3600    0.614050
   12.3610    0.612793
   12.3620    0.611537
   12.3630    0.610280
   12.3640    0.609024
   12.3650    0.607767
   12.3660    0.606511
   12.3670    0.605254
   12.3680    0.603998
   12.3690    0.602741
   12.3700    0.601485
   12.3710    0.600228
   12.3720    0.598972
   12.3730    0.597715
   12.3740    0.596459
   12.3750    0.595202
   12.3760    0.593946
   12.3770    0.592673
   12.3780    0.591393
   12.3790    0.590113
   12.3800    0.588826
   12.3810    0.587533
   12.3820    0.586240
   12.3830    0.584947
   12.3840    0.583652
   12.3850    0.582359
   12.3860    0.581066
   12.3870    0.579774
   12.3880    0.578479
   12.3890    0.577186
   12.3900    0.575893
   12.3910    0.574600
   12.3920    0.573307
   12.3930    0.572013
   12.3940    0.570720
   12.3950    0.569427
   12.3960    0.568134
   12.3970    0.566840
   12.3980    0.565547
   12.3990    0.564254
   12.4000    0.562961
   12.4010    0.561668
   12.4020    0.560367
   12.4030    0.559049
   12.4040    0.557708
   12.4050    0.556351
   12.4060    0.554975
   12.4070    0.553583
   12.4080    0.552183
   12.4090    0.550709
   12.4100    0.549201
   12.4110    0.547677
   12.4120    0.546142
   12.4130    0.544597
   12.4140    0.543044
   12.4150    0.541490
   12.4160    0.539937
   12.4170    0.538372
   12.4180    0.536801
   12.4190    0.535227
   12.4200    0.533653
   12.4210    0.532078
   12.4220    0.530504
   12.4230    0.528927
   12.4240    0.527349
   12.4250    0.525771
   12.4260    0.524193
   12.4270    0.522615
   12.4280    0.521026
   12.4290    0.519435
   12.4300    0.517841
   12.4310    0.516238
   12.4320    0.514636
   12.4330    0.513034
   12.4340    0.511432
   12.4350    0.509830
   12.4360    0.508228
   12.4370    0.506626
   12.4380    0.505024
   12.4390    0.503422
   12.4400    0.501820
   12.4410    0.500218
   12.4420    0.498616
   12.4430    0.497014
   12.4440    0.495412
   12.4450    0.493809
   12.4460    0.492207
   12.4470    0.490605
   12.4480    0.489003
   12.4490    0.487401
   12.4500    0.485799
   12.4510    0.484197
   12.4520    0.482595
   12.4530    0.480993
   12.4540    0.479391
   12.4550    0.477789
   12.4560    0.476187
   12.4570    0.474581
   12.4580    0.472973
   12.4590    0.471365
   12.4600    0.469758
   12.4610    0.468151
   12.4620    0.466544
   12.4630    0.464937
   12.4640    0.463331
   12.4650    0.461724
   12.4660    0.460117
   12.4670    0.458510
   12.4680    0.456904
   12.4690    0.455297
   12.4700    0.453690
   12.4710    0.452083
   12.4720    0.450477
   12.4730    0.448870
   12.4740    0.447263
   12.4750    0.445656
   12.4760    0.444050
   12.4770    0.442443
   12.4780    0.440836
   12.4790    0.439229
   12.4800    0.437623
   12.4810    0.436016
   12.4820    0.434413
   12.4830    0.432825
   12.4840    0.431257
   12.4850    0.429701
   12.4860    0.428158
   12.4870    0.426629
   12.4880    0.425109
   12.4890    0.423641
   12.4900    0.422196
   12.4910    0.420765
   12.4920    0.419347
   12.4930    0.417940
   12.4940    0.416544
   12.4950    0.415148
   12.4960    0.413752
   12.4970    0.412367
   12.4980    0.410990
   12.4990    0.409618
   12.5000    0.408246
   12.5010    0.406874
   12.5020    0.405503
   12.5030    0.404137
   12.5040    0.402772
   12.5050    0.401408
   12.5060    0.400043
   12.5070    0.398679
   12.5080    0.397329
   12.5090    0.395982
   12.5100    0.394639
   12.5110    0.393305
   12.5120    0.391972
   12.5130    0.390639
   12.5140    0.389305
   12.5150    0.387972
   12.5160    0.386639
   12.5170    0.385305
   12.5180    0.383972
   12.5190    0.382638
   12.5200    0.381305
   12.5210    0.379972
   12.5220    0.378638
   12.5230    0.377305
   12.5240    0.375972
   12.5250    0.374638
   12.5260    0.373305
   12.5270    0.371972
   12.5280    0.370638
   12.5290    0.369305
   12.5300    0.367971
   12.5310    0.366638
   12.5320    0.365305
   12.5330    0.363971
   12.5340    0.362638
   12.5350    0.361305
   12.5360    0.359971
   12.5370    0.358644
   12.5380    0.357320
   12.5390    0.355995
   12.5400    0.354671
   12.5410    0.353345
   12.5420    0.352020
   12.5430    0.350695
   12.5440    0.349370
   12.5450    0.348045
   12.5460    0.346720
   12.5470    0.345395
   12.5480    0.344070
   12.5490    0.342745
   12.5500    0.341420
   12.5510    0.340095
   12.5520    0.338769
   12.5530    0.337444
   12.5540    0.336119
   12.5550    0.334794
   12.5560    0.333469
   12.5570    0.332144
   12.5580    0.330819
   12.5590    0.329494
   12.5600    0.328169
   12.5610    0.326844
   12.5620    0.325525
   12.5630    0.324231
   12.5640    0.322964
   12.5650    0.321705
   12.5660    0.320463
   12.5670    0.319237
   12.5680    0.318018
   12.5690    0.316854
   12.5700    0.315714
   12.5710    0.314586
   12.5720    0.313466
   12.5730    0.312354
   12.5740    0.311250
   12.5750    0.310147
   12.5760    0.309043
   12.5770    0.307947
   12.5780    0.306853
   12.5790    0.305761
   12.5800    0.304669
   12.5810    0.303577
   12.5820    0.302485
   12.5830    0.301396
   12.5840    0.300309
   12.5850    0.299221
   12.5860    0.298133
   12.5870    0.297046
   12.5880    0.295966
   12.5890    0.294888
   12.5900    0.293813
   12.5910    0.292745
   12.5920    0.291677
   12.5930    0.290610
   12.5940    0.289542
   12.5950    0.288474
   12.5960    0.287406
   12.5970    0.286339
   12.5980    0.285271
   12.5990    0.284203
   12.6000    0.283136
   12.6010    0.282068
   12.6020    0.281000
   12.6030    0.279932
   12.6040    0.278865
   12.6050    0.277797
   12.6060    0.276729
   12.6070    0.275662
   12.6080    0.274594
   12.6090    0.273526
   12.6100    0.272458
   12.6110    0.271391
   12.6120    0.270323
   12.6130    0.269255
   12.6140    0.268188
   12.6150    0.267120
   12.6160    0.266052
   12.6170    0.264991
   12.6180    0.263933
   12.6190    0.262874
   12.6200    0.261820
   12.6210    0.260770
   12.6220    0.259720
   12.6230    0.258670
   12.6240    0.257620
   12.6250    0.256570
   12.6260    0.255520
   12.6270    0.254470
   12.6280    0.253420
   12.6290    0.252370
   12.6300    0.251320
   12.6310    0.250270
   12.6320    0.249220
   12.6330    0.248168
   12.6340    0.247118
   12.6350    0.246068
   12.6360    0.245018
   12.6370    0.243968
   12.6380    0.242918
   12.6390    0.241868
   12.6400    0.240818
   12.6410    0.239768
   12.6420    0.238724
   12.6430    0.237697
   12.6440    0.236700
   12.6450    0.235714
   12.6460    0.234741
   12.6470    0.233780
   12.6480    0.232826
   12.6490    0.231917
   12.6500    0.231029
   12.6510    0.230152
   12.6520    0.229284
   12.6530    0.228424
   12.6540    0.227571
   12.6550    0.226718
   12.6560    0.225865
   12.6570    0.225020
   12.6580    0.224179
   12.6590    0.223342
   12.6600    0.222504
   12.6610    0.221666
   12.6620    0.220828
   12.6630    0.219994
   12.6640    0.219162
   12.6650    0.218329
   12.6660    0.217496
   12.6670    0.216663
   12.6680    0.215839
   12.6690    0.215015
   12.6700    0.214194
   12.6710    0.213379
   12.6720    0.212563
   12.6730    0.211747
   12.6740    0.210931
   12.6750    0.210115
   12.6760    0.209299
   12.6770    0.208483
   12.6780    0.207667
   12.6790    0.206851
   12.6800    0.206035
   12.6810    0.205219
   12.6820    0.204403
   12.6830    0.203587
   12.6840    0.202771
   12.6850    0.201955
   12.6860    0.201139
   12.6870    0.200323
   12.6880    0.199507
   12.6890    0.198691
   12.6900    0.197875
   12.6910    0.197059
   12.6920    0.196243
   12.6930    0.195427
   12.6940    0.194611
   12.6950    0.193795
   12.6960    0.192979
   12.6970    0.192171
   12.6980    0.191366
   12.6990    0.190561
   12.7000    0.189758
   12.7010    0.188957
   12.7020    0.188157
   12.7030    0.187356
   12.7040    0.186555
   12.7050    0.185754
   12.7060    0.184954
   12.7070    0.184153
   12.7080    0.183352
   12.7090    0.182552
   12.7100    0.181751
   12.7110    0.180950
   12.7120    0.180150
   12.7130    0.179349
   12.7140    0.178548
   12.7150    0.177748
   12.7160    0.176947
   12.7170    0.176146
   12.7180    0.175346
   12.7190    0.174545
   12.7200    0.173744
   12.7210    0.172944
   12.7220    0.172145
   12.7230    0.171347
   12.7240    0.170551
   12.7250    0.169756
   12.7260    0.168966
   12.7270    0.168179
   12.7280    0.167392
   12.7290    0.166623
   12.7300    0.165863
   12.7310    0.165107
   12.7320    0.164354
   12.7330    0.163604
   12.7340    0.162857
   12.7350    0.162110
   12.7360    0.161362
   12.7370    0.160618
   12.7380    0.159873
   12.7390    0.159130
   12.7400    0.158386
   12.7410    0.157642
   12.7420    0.156898
   12.7430    0.156154
   12.7440    0.155410
   12.7450    0.154666
   12.7460    0.153922
   12.7470    0.153178
   12.7480    0.152437
   12.7490    0.151698
   12.7500    0.150960
   12.7510    0.150227
   12.7520    0.149494
   12.7530    0.148760
   12.7540    0.148027
   12.7550    0.147294
   12.7560    0.146560
   12.7570    0.145827
   12.7580    0.145094
   12.7590    0.144361
   12.7600    0.143627
   12.7610    0.142894
   12.7620    0.142161
   12.7630    0.141427
   12.7640    0.140694
   12.7650    0.139961
   12.7660    0.139228
   12.7670    0.138494
   12.7680    0.137761
   12.7690    0.137028
   12.7700    0.136294
   12.7710    0.135561
   12.7720    0.134828
   12.7730    0.134095
   12.7740    0.133361
   12.7750    0.132628
   12.7760    0.131895
   12.7770    0.131164
   12.7780    0.130435
   12.7790    0.129705
   12.7800    0.128976
   12.7810    0.128245
   12.7820    0.127515
   12.7830    0.126785
   12.7840    0.126055
   12.7850    0.125325
   12.7860    0.124595
   12.7870    0.123865
   12.7880    0.123135
   12.7890    0.122405
   12.7900    0.121675
   12.7910    0.120944
   12.7920    0.120214
   12.7930    0.119484
   12.7940    0.118754
   12.7950    0.118024
   12.7960    0.117294
   12.7970    0.116564
   12.7980    0.115834
   12.7990    0.115104
   12.8000    0.114374
   12.8010    0.113643
   12.8020    0.112916
   12.8030    0.112197
   12.8040    0.111492
   12.8050    0.110791
   12.8060    0.110097
   12.8070    0.109410
   12.8080    0.108728
   12.8090    0.108074
   12.8100    0.107431
   12.8110    0.106795
   12.8120    0.106165
   12.8130    0.105540
   12.8140    0.104919
   12.8150    0.104298
   12.8160    0.103677
   12.8170    0.103062
   12.8180    0.102451
   12.8190    0.101843
   12.8200    0.101234
   12.8210    0.100626
   12.8220    0.100017
   12.8230    0.099412
   12.8240    0.098808
   12.8250    0.098203
   12.8260    0.097599
   12.8270    0.096995
   12.8280    0.096396
   12.8290    0.095798
   12.8300    0.095201
   12.8310    0.094607
   12.8320    0.094012
   12.8330    0.093418
   12.8340    0.092823
   12.8350    0.092229
   12.8360    0.091634
   12.8370    0.091039
   12.8380    0.090445
   12.8390    0.089850
   12.8400    0.089256
   12.8410    0.088661
   12.8420    0.088067
   12.8430    0.087472
   12.8440    0.086878
   12.8450    0.086283
   12.8460    0.085689
   12.8470    0.085094
   12.8480    0.084500
   12.8490    0.083905
   12.8500    0.083310
   12.8510    0.082715
   12.8520    0.082120
   12.8530    0.081526
   12.8540    0.080931
   12.8550    0.080337
   12.8560    0.079742
   12.8570    0.079153
   12.8580    0.078566
   12.8590    0.077978
   12.8600    0.077394
   12.8610    0.076812
   12.8620    0.076230
   12.8630    0.075647
   12.8640    0.075065
   12.8650    0.074483
   12.8660    0.073901
   12.8670    0.073319
   12.8680    0.072737
   12.8690    0.072154
   12.8700    0.071572
   12.8710    0.070990
   12.8720    0.070408
   12.8730    0.069826
   12.8740    0.069243
   12.8750    0.068661
   12.8760    0.068079
   12.8770    0.067497
   12.8780    0.066915
   12.8790    0.066333
   12.8800    0.065750
   12.8810    0.065168
   12.8820    0.064592
   12.8830    0.064037
   12.8840    0.063506
   12.8850    0.062981
   12.8860    0.062461
   12.8870    0.061952
   12.8880    0.061447
   12.8890    0.060950
   12.8900    0.060458
   12.8910    0.059966
   12.8920    0.059479
   12.8930    0.058996
   12.8940    0.058513
   12.8950    0.058030
   12.8960    0.057548
   12.8970    0.057066
   12.8980    0.056587
   12.8990    0.056111
   12.9000    0.055635
   12.9010    0.055159
   12.9020    0.054683
   12.9030    0.054213
   12.9040    0.053746
   12.9050    0.053278
   12.9060    0.052811
   12.9070    0.052343
   12.9080    0.051877
   12.9090    0.051411
   12.9100    0.050946
   12.9110    0.050484
   12.9120    0.050022
   12.9130    0.049559
   12.9140    0.049097
   12.9150    0.048634
   12.9160    0.048172
   12.9170    0.047710
   12.9180    0.047247
   12.9190    0.046785
   12.9200    0.046322
   12.9210    0.045860
   12.9220    0.045398
   12.9230    0.044935
   12.9240    0.044473
   12.9250    0.044010
   12.9260    0.043548
   12.9270    0.043086
   12.9280    0.042623
   12.9290    0.042161
   12.9300    0.041698
   12.9310    0.041236
   12.9320    0.040774
   12.9330    0.040311
   12.9340    0.039849
   12.9350    0.039386
   12.9360    0.038924
   12.9370    0.038461
   12.9380    0.037999
   12.9390    0.037536
   12.9400    0.037076
   12.9410    0.036619
   12.9420    0.036162
   12.9430    0.035704
   12.9440    0.035247
   12.9450    0.034790
   12.9460    0.034333
   12.9470    0.033876
   12.9480    0.033419
   12.9490    0.032962
   12.9500    0.032504
   12.9510    0.032047
   12.9520    0.031590
   12.9530    0.031133
   12.9540    0.030676
   12.9550    0.030219
   12.9560    0.029762
   12.9570    0.029304
   12.9580    0.028847
   12.9590    0.028390
   12.9600    0.027933
   12.9610    0.027476
   12.9620    0.027024
   12.9630    0.026587
   12.9640    0.026148
   12.9650    0.025714
   12.9660    0.025283
   12.9670    0.024862
   12.9680    0.024445
   12.9690    0.024032
   12.9700    0.023618
   12.9710    0.023204
   12.9720    0.022794
   12.9730    0.022385
   12.9740    0.021977
   12.9750    0.021568
   12.9760    0.021160
   12.9770    0.020751
   12.9780    0.020351
   12.9790    0.019989
   12.9800    0.019635
   12.9810    0.019296
   12.9820    0.018965
   12.9830    0.018644
   12.9840    0.018387
   12.9850    0.018158
   12.9860    0.017945
   12.9870    0.017740
   12.9880    0.017545
   12.9890    0.017359
   12.9900    0.017174
   12.9910    0.016988
   12.9920    0.016812
   12.9930    0.016639
   12.9940    0.016465
   12.9950    0.016292
   12.9960    0.016118
   12.9970    0.015944
   12.9980    0.015771
   12.9990    0.015597
   13.0000    0.015423
   13.0010    0.015250
   13.0020    0.015076
   13.0030    0.014912
   13.0040    0.014749
   13.0050    0.014590
   13.0060    0.014438
   13.0070    0.014285
   13.0080    0.014133
   13.0090    0.013981
   13.0100    0.013829
   13.0110    0.013677
   13.0120    0.013525
   13.0130    0.013373
   13.0140    0.013221
   13.0150    0.013069
   13.0160    0.012916
   13.0170    0.012764
   13.0180    0.012612
   13.0190    0.012460
   13.0200    0.012308
   13.0210    0.012156
   13.0220    0.012004
   13.0230    0.011852
   13.0240    0.011699
   13.0250    0.011547
   13.0260    0.011395
   13.0270    0.011243
   13.0280    0.011091
   13.0290    0.010939
   13.0300    0.010787
   13.0310    0.010635
   13.0320    0.010490
   13.0330    0.010350
   13.0340    0.010210
   13.0350    0.010073
   13.0360    0.009938
   13.0370    0.009803
   13.0380    0.009668
   13.0390    0.009533
   13.0400    0.009398
   13.0410    0.009263
   13.0420    0.009129
   13.0430    0.008994
   13.0440    0.008859
   13.0450    0.008724
   13.0460    0.008589
   13.0470    0.008454
   13.0480    0.008319
   13.0490    0.008185
   13.0500    0.008050
   13.0510    0.007915
   13.0520    0.007780
   13.0530    0.007645
   13.0540    0.007510
   13.0550    0.007376
   13.0560    0.007241
   13.0570    0.007106
   13.0580    0.006971
   13.0590    0.006836
   13.0600    0.006701
   13.0610    0.006566
   13.0620    0.006432
   13.0630    0.006297
   13.0640    0.006162
   13.0650    0.006027
   13.0660    0.005892
   13.0670    0.005757
   13.0680    0.005622
   13.0690    0.005488
   13.0700    0.005353
   13.0710    0.005218
   13.0720    0.005092
