NPP VIIRS Band Averaged Relative Spectral Response from Northrop Grumman October 2011 release to govt team.
    WL(um)      RSR
    8.3160    0.005023
    8.3170    0.005282
    8.3180    0.005554
    8.3190    0.005841
    8.3200    0.006130
    8.3210    0.006419
    8.3220    0.006717
    8.3230    0.007021
    8.3240    0.007325
    8.3250    0.007629
    8.3260    0.007933
    8.3270    0.008237
    8.3280    0.008541
    8.3290    0.008845
    8.3300    0.009165
    8.3310    0.009514
    8.3320    0.009904
    8.3330    0.010294
    8.3340    0.010707
    8.3350    0.011262
    8.3360    0.011941
    8.3370    0.012753
    8.3380    0.013602
    8.3390    0.014492
    8.3400    0.015386
    8.3410    0.016281
    8.3420    0.017197
    8.3430    0.018127
    8.3440    0.019057
    8.3450    0.019988
    8.3460    0.020918
    8.3470    0.021848
    8.3480    0.022778
    8.3490    0.023708
    8.3500    0.024701
    8.3510    0.025806
    8.3520    0.027054
    8.3530    0.028303
    8.3540    0.029635
    8.3550    0.031484
    8.3560    0.033799
    8.3570    0.036586
    8.3580    0.039506
    8.3590    0.042574
    8.3600    0.045661
    8.3610    0.048747
    8.3620    0.051911
    8.3630    0.055128
    8.3640    0.058345
    8.3650    0.061563
    8.3660    0.064780
    8.3670    0.067998
    8.3680    0.071215
    8.3690    0.074433
    8.3700    0.077835
    8.3710    0.081556
    8.3720    0.085654
    8.3730    0.089751
    8.3740    0.094096
    8.3750    0.099974
    8.3760    0.107193
    8.3770    0.115794
    8.3780    0.124782
    8.3790    0.134201
    8.3800    0.143673
    8.3810    0.153144
    8.3820    0.162852
    8.3830    0.172717
    8.3840    0.182583
    8.3850    0.192450
    8.3860    0.202316
    8.3870    0.212181
    8.3880    0.222047
    8.3890    0.231913
    8.3900    0.241987
    8.3910    0.252401
    8.3920    0.263154
    8.3930    0.273907
    8.3940    0.284974
    8.3950    0.297952
    8.3960    0.312537
    8.3970    0.328771
    8.3980    0.345456
    8.3990    0.362551
    8.4000    0.379695
    8.4010    0.396841
    8.4020    0.414299
    8.4030    0.431967
    8.4040    0.449636
    8.4050    0.467304
    8.4060    0.484972
    8.4070    0.502641
    8.4080    0.520308
    8.4090    0.537976
    8.4100    0.555483
    8.4110    0.572713
    8.4120    0.589631
    8.4130    0.606550
    8.4140    0.623313
    8.4150    0.639121
    8.4160    0.654000
    8.4170    0.667893
    8.4180    0.681449
    8.4190    0.694545
    8.4200    0.707586
    8.4210    0.720628
    8.4220    0.733522
    8.4230    0.746316
    8.4240    0.759111
    8.4250    0.771906
    8.4260    0.784700
    8.4270    0.797495
    8.4280    0.810290
    8.4290    0.823085
    8.4300    0.835599
    8.4310    0.847646
    8.4320    0.859219
    8.4330    0.870792
    8.4340    0.881950
    8.4350    0.890572
    8.4360    0.897008
    8.4370    0.901212
    8.4380    0.904789
    8.4390    0.907817
    8.4400    0.910780
    8.4410    0.913743
    8.4420    0.916272
    8.4430    0.918508
    8.4440    0.920744
    8.4450    0.922980
    8.4460    0.925217
    8.4470    0.927453
    8.4480    0.929690
    8.4490    0.931926
    8.4500    0.934161
    8.4510    0.936386
    8.4520    0.938564
    8.4530    0.940742
    8.4540    0.942859
    8.4550    0.944597
    8.4560    0.946128
    8.4570    0.947479
    8.4580    0.948876
    8.4590    0.950312
    8.4600    0.951753
    8.4610    0.953193
    8.4620    0.954609
    8.4630    0.956006
    8.4640    0.957403
    8.4650    0.958800
    8.4660    0.960197
    8.4670    0.961594
    8.4680    0.962991
    8.4690    0.964389
    8.4700    0.965789
    8.4710    0.967196
    8.4720    0.968602
    8.4730    0.970008
    8.4740    0.971418
    8.4750    0.972863
    8.4760    0.974335
    8.4770    0.975828
    8.4780    0.977312
    8.4790    0.978789
    8.4800    0.980265
    8.4810    0.981742
    8.4820    0.983229
    8.4830    0.984723
    8.4840    0.986217
    8.4850    0.987710
    8.4860    0.989204
    8.4870    0.990698
    8.4880    0.992192
    8.4890    0.993687
    8.4900    0.995103
    8.4910    0.996381
    8.4920    0.997484
    8.4930    0.998588
    8.4940    0.999591
    8.4950    1.000000
    8.4960    0.999842
    8.4970    0.999073
    8.4980    0.998113
    8.4990    0.996968
    8.5000    0.995801
    8.5010    0.994633
    8.5020    0.993356
    8.5030    0.992006
    8.5040    0.990656
    8.5050    0.989306
    8.5060    0.987956
    8.5070    0.986605
    8.5080    0.985255
    8.5090    0.983905
    8.5100    0.982487
    8.5110    0.980954
    8.5120    0.979305
    8.5130    0.977658
    8.5140    0.975908
    8.5150    0.973518
    8.5160    0.970603
    8.5170    0.967167
    8.5180    0.963607
    8.5190    0.959916
    8.5200    0.956208
    8.5210    0.952499
    8.5220    0.948699
    8.5230    0.944836
    8.5240    0.940973
    8.5250    0.937109
    8.5260    0.933246
    8.5270    0.929383
    8.5280    0.925519
    8.5290    0.921656
    8.5300    0.917781
    8.5310    0.913890
    8.5320    0.909991
    8.5330    0.906092
    8.5340    0.902169
    8.5350    0.898093
    8.5360    0.893917
    8.5370    0.889654
    8.5380    0.885379
    8.5390    0.881097
    8.5400    0.876815
    8.5410    0.872532
    8.5420    0.868230
    8.5430    0.863914
    8.5440    0.859600
    8.5450    0.855285
    8.5460    0.850969
    8.5470    0.846655
    8.5480    0.842340
    8.5490    0.838026
    8.5500    0.833773
    8.5510    0.829624
    8.5520    0.825569
    8.5530    0.821513
    8.5540    0.817533
    8.5550    0.814041
    8.5560    0.810931
    8.5570    0.808213
    8.5580    0.805603
    8.5590    0.803132
    8.5600    0.800678
    8.5610    0.798223
    8.5620    0.795830
    8.5630    0.793478
    8.5640    0.791127
    8.5650    0.788775
    8.5660    0.786423
    8.5670    0.784070
    8.5680    0.781719
    8.5690    0.779367
    8.5700    0.777086
    8.5710    0.774930
    8.5720    0.772932
    8.5730    0.770934
    8.5740    0.769047
    8.5750    0.767819
    8.5760    0.767183
    8.5770    0.767147
    8.5780    0.767262
    8.5790    0.767532
    8.5800    0.767821
    8.5810    0.768109
    8.5820    0.768507
    8.5830    0.768980
    8.5840    0.769452
    8.5850    0.769924
    8.5860    0.770396
    8.5870    0.770868
    8.5880    0.771341
    8.5890    0.771813
    8.5900    0.772348
    8.5910    0.772990
    8.5920    0.773761
    8.5930    0.774533
    8.5940    0.775400
    8.5950    0.776848
    8.5960    0.778794
    8.5970    0.781255
    8.5980    0.783861
    8.5990    0.786598
    8.6000    0.789349
    8.6010    0.792100
    8.6020    0.794945
    8.6030    0.797855
    8.6040    0.800765
    8.6050    0.803675
    8.6060    0.806584
    8.6070    0.809494
    8.6080    0.812405
    8.6090    0.815314
    8.6100    0.818238
    8.6110    0.821186
    8.6120    0.824156
    8.6130    0.827126
    8.6140    0.830126
    8.6150    0.833315
    8.6160    0.836658
    8.6170    0.840157
    8.6180    0.843707
    8.6190    0.847276
    8.6200    0.850847
    8.6210    0.854419
    8.6220    0.858023
    8.6230    0.861649
    8.6240    0.865276
    8.6250    0.868902
    8.6260    0.872527
    8.6270    0.876153
    8.6280    0.879780
    8.6290    0.883406
    8.6300    0.887025
    8.6310    0.890635
    8.6320    0.894230
    8.6330    0.897825
    8.6340    0.901413
    8.6350    0.904970
    8.6360    0.908472
    8.6370    0.911902
    8.6380    0.915287
    8.6390    0.918651
    8.6400    0.922012
    8.6410    0.925373
    8.6420    0.928717
    8.6430    0.932050
    8.6440    0.935382
    8.6450    0.938714
    8.6460    0.942047
    8.6470    0.945379
    8.6480    0.948712
    8.6490    0.952044
    8.6500    0.955318
    8.6510    0.958488
    8.6520    0.961529
    8.6530    0.964570
    8.6540    0.967524
    8.6550    0.969936
    8.6560    0.971892
    8.6570    0.973372
    8.6580    0.974710
    8.6590    0.975930
    8.6600    0.977136
    8.6610    0.978341
    8.6620    0.979468
    8.6630    0.980542
    8.6640    0.981615
    8.6650    0.982688
    8.6660    0.983761
    8.6670    0.984834
    8.6680    0.985907
    8.6690    0.986980
    8.6700    0.987957
    8.6710    0.988772
    8.6720    0.989401
    8.6730    0.990030
    8.6740    0.990535
    8.6750    0.990279
    8.6760    0.989351
    8.6770    0.987745
    8.6780    0.985972
    8.6790    0.983978
    8.6800    0.981957
    8.6810    0.979936
    8.6820    0.977798
    8.6830    0.975581
    8.6840    0.973365
    8.6850    0.971149
    8.6860    0.968932
    8.6870    0.966715
    8.6880    0.964499
    8.6890    0.962282
    8.6900    0.959964
    8.6910    0.957470
    8.6920    0.954769
    8.6930    0.952067
    8.6940    0.949209
    8.6950    0.945386
    8.6960    0.940753
    8.6970    0.935300
    8.6980    0.929629
    8.6990    0.923752
    8.7000    0.917853
    8.7010    0.911952
    8.7020    0.905906
    8.7030    0.899761
    8.7040    0.893617
    8.7050    0.887472
    8.7060    0.881328
    8.7070    0.875183
    8.7080    0.869039
    8.7090    0.862894
    8.7100    0.856662
    8.7110    0.850282
    8.7120    0.843749
    8.7130    0.837214
    8.7140    0.830546
    8.7150    0.823047
    8.7160    0.814865
    8.7170    0.805980
    8.7180    0.796917
    8.7190    0.787675
    8.7200    0.778409
    8.7210    0.769144
    8.7220    0.759751
    8.7230    0.750272
    8.7240    0.740793
    8.7250    0.731314
    8.7260    0.721835
    8.7270    0.712356
    8.7280    0.702877
    8.7290    0.693398
    8.7300    0.683900
    8.7310    0.674366
    8.7320    0.664779
    8.7330    0.655192
    8.7340    0.645558
    8.7350    0.635638
    8.7360    0.625473
    8.7370    0.615064
    8.7380    0.604591
    8.7390    0.594092
    8.7400    0.583589
    8.7410    0.573086
    8.7420    0.562529
    8.7430    0.551935
    8.7440    0.541342
    8.7450    0.530748
    8.7460    0.520154
    8.7470    0.509560
    8.7480    0.498966
    8.7490    0.488373
    8.7500    0.477828
    8.7510    0.467367
    8.7520    0.457006
    8.7530    0.446645
    8.7540    0.436348
    8.7550    0.426448
    8.7560    0.416895
    8.7570    0.407710
    8.7580    0.398640
    8.7590    0.389683
    8.7600    0.380738
    8.7610    0.371795
    8.7620    0.362916
    8.7630    0.354079
    8.7640    0.345243
    8.7650    0.336407
    8.7660    0.327570
    8.7670    0.318735
    8.7680    0.309898
    8.7690    0.301061
    8.7700    0.292311
    8.7710    0.283706
    8.7720    0.275264
    8.7730    0.266823
    8.7740    0.258505
    8.7750    0.250936
    8.7760    0.244019
    8.7770    0.237764
    8.7780    0.231691
    8.7790    0.225798
    8.7800    0.219927
    8.7810    0.214055
    8.7820    0.208305
    8.7830    0.202637
    8.7840    0.196968
    8.7850    0.191299
    8.7860    0.185630
    8.7870    0.179962
    8.7880    0.174293
    8.7890    0.168625
    8.7900    0.163018
    8.7910    0.157517
    8.7920    0.152141
    8.7930    0.146765
    8.7940    0.141488
    8.7950    0.136821
    8.7960    0.132662
    8.7970    0.129018
    8.7980    0.125502
    8.7990    0.122109
    8.8000    0.118731
    8.8010    0.115354
    8.8020    0.112070
    8.8030    0.108848
    8.8040    0.105628
    8.8050    0.102407
    8.8060    0.099186
    8.8070    0.095964
    8.8080    0.092743
    8.8090    0.089522
    8.8100    0.086339
    8.8110    0.083221
    8.8120    0.080185
    8.8130    0.077149
    8.8140    0.074174
    8.8150    0.071565
    8.8160    0.069267
    8.8170    0.067288
    8.8180    0.065390
    8.8190    0.063568
    8.8200    0.061755
    8.8210    0.059943
    8.8220    0.058185
    8.8230    0.056466
    8.8240    0.054748
    8.8250    0.053029
    8.8260    0.051310
    8.8270    0.049591
    8.8280    0.047872
    8.8290    0.046153
    8.8300    0.044454
    8.8310    0.042791
    8.8320    0.041171
    8.8330    0.039551
    8.8340    0.037965
    8.8350    0.036588
    8.8360    0.035388
    8.8370    0.034370
    8.8380    0.033397
    8.8390    0.032467
    8.8400    0.031541
    8.8410    0.030616
    8.8420    0.029724
    8.8430    0.028854
    8.8440    0.027984
    8.8450    0.027114
    8.8460    0.026244
    8.8470    0.025374
    8.8480    0.024504
    8.8490    0.023634
    8.8500    0.022775
    8.8510    0.021934
    8.8520    0.021112
    8.8530    0.020291
    8.8540    0.019489
    8.8550    0.018803
    8.8560    0.018211
    8.8570    0.017713
    8.8580    0.017237
    8.8590    0.016781
    8.8600    0.016328
    8.8610    0.015875
    8.8620    0.015439
    8.8630    0.015016
    8.8640    0.014592
    8.8650    0.014169
    8.8660    0.013745
    8.8670    0.013322
    8.8680    0.012898
    8.8690    0.012475
    8.8700    0.012058
    8.8710    0.011652
    8.8720    0.011260
    8.8730    0.010868
    8.8740    0.010483
    8.8750    0.010144
    8.8760    0.009846
    8.8770    0.009587
    8.8780    0.009341
    8.8790    0.009103
    8.8800    0.008867
    8.8810    0.008631
    8.8820    0.008402
    8.8830    0.008178
    8.8840    0.007954
    8.8850    0.007730
    8.8860    0.007506
    8.8870    0.007282
    8.8880    0.007058
    8.8890    0.006834
    8.8900    0.006612
    8.8910    0.006392
    8.8920    0.006180
    8.8930    0.005968
    8.8940    0.005761
    8.8950    0.005582
    8.8960    0.005427
    8.8970    0.005294
    8.8980    0.005163
    8.8990    0.005038
